# E (eV)  dos(E)    pdos(E)
   7.605  0.336E-02  0.335E-02
   7.607  0.212E+00  0.211E+00
   7.609  0.197E+01  0.196E+01
   7.611  0.411E+01  0.410E+01
   7.613  0.442E+01  0.442E+01
   7.615  0.193E+01  0.193E+01
   7.617  0.200E+00  0.200E+00
   7.619  0.687E+00  0.686E+00
   7.621  0.238E+01  0.237E+01
   7.623  0.112E+01  0.111E+01
   7.625  0.709E-01  0.708E-01
   7.627  0.610E-03  0.609E-03
   7.629  0.710E-06  0.709E-06
   7.631  0.112E-09  0.112E-09
   7.633  0.240E-14  0.240E-14
   7.635  0.185E-11  0.185E-11
   7.637  0.265E-07  0.265E-07
   7.639  0.520E-04  0.520E-04
   7.641  0.142E-01  0.142E-01
   7.643  0.564E+00  0.563E+00
   7.645  0.352E+01  0.351E+01
   7.647  0.375E+01  0.374E+01
   7.649  0.719E+00  0.718E+00
   7.651  0.812E+00  0.811E+00
   7.653  0.240E+01  0.240E+01
   7.655  0.993E+00  0.992E+00
   7.657  0.345E+00  0.344E+00
   7.659  0.196E+01  0.196E+01
   7.661  0.179E+01  0.179E+01
   7.663  0.231E+00  0.231E+00
   7.665  0.395E+00  0.395E+00
   7.667  0.214E+01  0.213E+01
   7.669  0.158E+01  0.157E+01
   7.671  0.158E+00  0.157E+00
   7.673  0.119E-01  0.118E-01
   7.675  0.507E+00  0.506E+00
   7.677  0.370E+01  0.369E+01
   7.679  0.379E+01  0.378E+01
   7.681  0.846E+00  0.845E+00
   7.683  0.201E+01  0.200E+01
   7.685  0.213E+01  0.212E+01
   7.687  0.231E+01  0.230E+01
   7.689  0.164E+01  0.163E+01
   7.691  0.172E+00  0.172E+00
   7.693  0.246E-02  0.246E-02
   7.695  0.475E-05  0.475E-05
   7.697  0.124E-08  0.124E-08
   7.699  0.147E-08  0.147E-08
   7.701  0.624E-05  0.624E-05
   7.703  0.360E-02  0.360E-02
   7.705  0.282E+00  0.282E+00
   7.707  0.301E+01  0.301E+01
   7.709  0.440E+01  0.439E+01
   7.711  0.162E+01  0.162E+01
   7.713  0.242E+01  0.242E+01
   7.715  0.102E+01  0.102E+01
   7.717  0.588E-01  0.587E-01
   7.719  0.458E-03  0.458E-03
   7.721  0.496E-06  0.495E-06
   7.723  0.313E-04  0.313E-04
   7.725  0.111E-01  0.110E-01
   7.727  0.546E+00  0.545E+00
   7.729  0.378E+01  0.378E+01
   7.731  0.369E+01  0.369E+01
   7.733  0.677E+00  0.676E+00
   7.735  0.257E+01  0.256E+01
   7.737  0.811E+01  0.811E+01
   7.739  0.128E+02  0.128E+02
   7.741  0.176E+02  0.175E+02
   7.743  0.208E+02  0.208E+02
   7.745  0.173E+02  0.173E+02
   7.747  0.795E+01  0.794E+01
   7.749  0.450E+01  0.449E+01
   7.751  0.442E+01  0.442E+01
   7.753  0.219E+01  0.219E+01
   7.755  0.207E+01  0.207E+01
   7.757  0.240E+01  0.240E+01
   7.759  0.420E+01  0.420E+01
   7.761  0.619E+01  0.619E+01
   7.763  0.559E+01  0.558E+01
   7.765  0.431E+01  0.430E+01
   7.767  0.391E+01  0.390E+01
   7.769  0.136E+01  0.136E+01
   7.771  0.226E+01  0.225E+01
   7.773  0.391E+01  0.391E+01
   7.775  0.197E+01  0.196E+01
   7.777  0.222E+00  0.222E+00
   7.779  0.624E+00  0.623E+00
   7.781  0.236E+01  0.236E+01
   7.783  0.192E+01  0.192E+01
   7.785  0.507E+01  0.507E+01
   7.787  0.770E+01  0.769E+01
   7.789  0.344E+01  0.344E+01
   7.791  0.163E+01  0.163E+01
   7.793  0.270E+01  0.269E+01
   7.795  0.396E+01  0.396E+01
   7.797  0.520E+01  0.520E+01
   7.799  0.309E+01  0.308E+01
   7.801  0.831E+00  0.830E+00
   7.803  0.234E+01  0.234E+01
   7.805  0.882E+01  0.881E+01
   7.807  0.797E+01  0.796E+01
   7.809  0.202E+01  0.202E+01
   7.811  0.126E+00  0.126E+00
   7.813  0.258E+00  0.258E+00
   7.815  0.190E+01  0.190E+01
   7.817  0.243E+01  0.242E+01
   7.819  0.270E+01  0.270E+01
   7.821  0.383E+01  0.383E+01
   7.823  0.694E+01  0.694E+01
   7.825  0.378E+01  0.378E+01
   7.827  0.262E+01  0.261E+01
   7.829  0.110E+01  0.110E+01
   7.831  0.771E-01  0.770E-01
   7.833  0.547E+00  0.547E+00
   7.835  0.485E+01  0.484E+01
   7.837  0.622E+01  0.621E+01
   7.839  0.120E+01  0.120E+01
   7.841  0.102E+01  0.102E+01
   7.843  0.545E+01  0.545E+01
   7.845  0.914E+01  0.913E+01
   7.847  0.525E+01  0.525E+01
   7.849  0.233E+01  0.233E+01
   7.851  0.976E+01  0.975E+01
   7.853  0.106E+02  0.106E+02
   7.855  0.320E+01  0.319E+01
   7.857  0.206E+00  0.206E+00
   7.859  0.207E-02  0.206E-02
   7.861  0.644E-02  0.643E-02
   7.863  0.308E+00  0.308E+00
   7.865  0.200E+01  0.200E+01
   7.867  0.191E+01  0.191E+01
   7.869  0.179E+01  0.178E+01
   7.871  0.215E+01  0.214E+01
   7.873  0.748E+00  0.747E+00
   7.875  0.210E+01  0.210E+01
   7.877  0.194E+01  0.194E+01
   7.879  0.223E+01  0.223E+01
   7.881  0.300E+01  0.300E+01
   7.883  0.256E+01  0.255E+01
   7.885  0.611E+00  0.610E+00
   7.887  0.214E-01  0.213E-01
   7.889  0.102E-03  0.101E-03
   7.891  0.659E-07  0.658E-07
   7.893  0.237E-05  0.236E-05
   7.895  0.148E-02  0.148E-02
   7.897  0.125E+00  0.125E+00
   7.899  0.144E+01  0.144E+01
   7.901  0.223E+01  0.223E+01
   7.903  0.561E+00  0.560E+00
   7.905  0.128E+01  0.128E+01
   7.907  0.242E+01  0.242E+01
   7.909  0.244E+01  0.244E+01
   7.911  0.479E+01  0.478E+01
   7.913  0.172E+01  0.172E+01
   7.915  0.881E-01  0.880E-01
   7.917  0.633E-03  0.632E-03
   7.919  0.635E-06  0.634E-06
   7.921  0.882E-10  0.881E-10
   7.923  0.124E-11  0.124E-11
   7.925  0.191E-07  0.190E-07
   7.927  0.396E-04  0.395E-04
   7.929  0.111E-01  0.111E-01
   7.931  0.423E+00  0.422E+00
   7.933  0.218E+01  0.217E+01
   7.935  0.157E+01  0.157E+01
   7.937  0.110E+01  0.110E+01
   7.939  0.241E+01  0.241E+01
   7.941  0.939E+00  0.937E+00
   7.943  0.146E+01  0.146E+01
   7.945  0.225E+01  0.225E+01
   7.947  0.983E+00  0.982E+00
   7.949  0.228E+01  0.228E+01
   7.951  0.137E+01  0.137E+01
   7.953  0.112E+00  0.112E+00
   7.955  0.125E-02  0.124E-02
   7.957  0.276E-04  0.276E-04
   7.959  0.837E-02  0.836E-02
   7.961  0.386E+00  0.385E+00
   7.963  0.287E+01  0.286E+01
   7.965  0.499E+01  0.498E+01
   7.967  0.442E+01  0.441E+01
   7.969  0.515E+01  0.514E+01
   7.971  0.326E+01  0.325E+01
   7.973  0.118E+01  0.118E+01
   7.975  0.242E+01  0.242E+01
   7.977  0.131E+01  0.131E+01
   7.979  0.308E+01  0.307E+01
   7.981  0.410E+01  0.410E+01
   7.983  0.982E+00  0.981E+00
   7.985  0.599E-01  0.598E-01
   7.987  0.775E+00  0.774E+00
   7.989  0.409E+01  0.409E+01
   7.991  0.327E+01  0.327E+01
   7.993  0.850E+00  0.849E+00
   7.995  0.223E+01  0.222E+01
   7.997  0.145E+01  0.145E+01
   7.999  0.129E+00  0.128E+00
   8.001  0.154E-02  0.154E-02
   8.003  0.245E-03  0.245E-03
   8.005  0.423E-01  0.423E-01
   8.007  0.109E+01  0.109E+01
   8.009  0.434E+01  0.433E+01
   8.011  0.290E+01  0.289E+01
   8.013  0.177E+01  0.177E+01
   8.015  0.444E+01  0.443E+01
   8.017  0.534E+01  0.534E+01
   8.019  0.362E+01  0.362E+01
   8.021  0.188E+01  0.187E+01
   8.023  0.218E+00  0.218E+00
   8.025  0.359E-02  0.359E-02
   8.027  0.223E-02  0.223E-02
   8.029  0.162E+00  0.162E+00
   8.031  0.160E+01  0.159E+01
   8.033  0.229E+01  0.228E+01
   8.035  0.198E+01  0.198E+01
   8.037  0.214E+01  0.214E+01
   8.039  0.846E+00  0.845E+00
   8.041  0.223E+01  0.223E+01
   8.043  0.147E+01  0.147E+01
   8.045  0.806E+00  0.805E+00
   8.047  0.240E+01  0.239E+01
   8.049  0.177E+01  0.177E+01
   8.051  0.243E+01  0.243E+01
   8.053  0.116E+01  0.116E+01
   8.055  0.772E-01  0.771E-01
   8.057  0.244E-01  0.244E-01
   8.059  0.643E+00  0.642E+00
   8.061  0.236E+01  0.235E+01
   8.063  0.117E+01  0.117E+01
   8.065  0.340E+00  0.339E+00
   8.067  0.199E+01  0.199E+01
   8.069  0.317E+01  0.317E+01
   8.071  0.257E+01  0.256E+01
   8.073  0.115E+01  0.115E+01
   8.075  0.235E+01  0.235E+01
   8.077  0.123E+01  0.123E+01
   8.079  0.877E-01  0.876E-01
   8.081  0.846E-03  0.845E-03
   8.083  0.111E-05  0.111E-05
   8.085  0.731E-05  0.730E-05
   8.087  0.336E-02  0.335E-02
   8.089  0.208E+00  0.208E+00
   8.091  0.175E+01  0.175E+01
   8.093  0.211E+01  0.211E+01
   8.095  0.171E+01  0.171E+01
   8.097  0.226E+01  0.225E+01
   8.099  0.582E+00  0.581E+00
   8.101  0.145E+01  0.145E+01
   8.103  0.472E+01  0.471E+01
   8.105  0.523E+01  0.522E+01
   8.107  0.130E+01  0.129E+01
   8.109  0.494E-01  0.493E-01
   8.111  0.269E-03  0.268E-03
   8.113  0.103E-02  0.102E-02
   8.115  0.993E-01  0.991E-01
   8.117  0.130E+01  0.130E+01
   8.119  0.230E+01  0.230E+01
   8.121  0.552E+00  0.552E+00
   8.123  0.332E-01  0.331E-01
   8.125  0.505E+00  0.504E+00
   8.127  0.227E+01  0.226E+01
   8.129  0.153E+01  0.153E+01
   8.131  0.168E+01  0.168E+01
   8.133  0.220E+01  0.219E+01
   8.135  0.139E+01  0.138E+01
   8.137  0.242E+01  0.241E+01
   8.139  0.991E+00  0.989E+00
   8.141  0.244E+01  0.244E+01
   8.143  0.801E+01  0.800E+01
   8.145  0.874E+01  0.873E+01
   8.147  0.395E+01  0.394E+01
   8.149  0.626E+01  0.625E+01
   8.151  0.405E+01  0.405E+01
   8.153  0.604E+00  0.603E+00
   8.155  0.108E+01  0.108E+01
   8.157  0.430E+01  0.430E+01
   8.159  0.359E+01  0.359E+01
   8.161  0.271E+01  0.270E+01
   8.163  0.105E+01  0.105E+01
   8.165  0.127E+00  0.127E+00
   8.167  0.129E+01  0.129E+01
   8.169  0.510E+01  0.509E+01
   8.171  0.657E+01  0.656E+01
   8.173  0.350E+01  0.349E+01
   8.175  0.562E+00  0.561E+00
   8.177  0.160E-01  0.160E-01
   8.179  0.534E-02  0.534E-02
   8.181  0.279E+00  0.279E+00
   8.183  0.221E+01  0.220E+01
   8.185  0.381E+01  0.380E+01
   8.187  0.278E+01  0.278E+01
   8.189  0.262E+01  0.262E+01
   8.191  0.106E+01  0.106E+01
   8.193  0.392E+00  0.391E+00
   8.195  0.245E+01  0.244E+01
   8.197  0.392E+01  0.391E+01
   8.199  0.196E+01  0.196E+01
   8.201  0.307E+01  0.306E+01
   8.203  0.515E+01  0.515E+01
   8.205  0.341E+01  0.341E+01
   8.207  0.243E+01  0.242E+01
   8.209  0.236E+01  0.236E+01
   8.211  0.544E+00  0.543E+00
   8.213  0.214E-01  0.213E-01
   8.215  0.230E+00  0.230E+00
   8.217  0.181E+01  0.181E+01
   8.219  0.194E+01  0.194E+01
   8.221  0.424E+00  0.423E+00
   8.223  0.153E+01  0.153E+01
   8.225  0.238E+01  0.238E+01
   8.227  0.217E+01  0.217E+01
   8.229  0.201E+01  0.201E+01
   8.231  0.324E+00  0.323E+00
   8.233  0.670E+00  0.669E+00
   8.235  0.404E+01  0.403E+01
   8.237  0.344E+01  0.343E+01
   8.239  0.908E+00  0.907E+00
   8.241  0.250E+01  0.249E+01
   8.243  0.338E+01  0.338E+01
   8.245  0.379E+01  0.378E+01
   8.247  0.315E+01  0.314E+01
   8.249  0.590E+01  0.589E+01
   8.251  0.565E+01  0.564E+01
   8.253  0.195E+01  0.195E+01
   8.255  0.239E+01  0.238E+01
   8.257  0.672E+00  0.671E+00
   8.259  0.258E-01  0.257E-01
   8.261  0.134E-03  0.133E-03
   8.263  0.939E-07  0.938E-07
   8.265  0.892E-11  0.891E-11
   8.267  0.606E-12  0.606E-12
   8.269  0.125E-07  0.125E-07
   8.271  0.357E-04  0.356E-04
   8.273  0.140E-01  0.139E-01
   8.275  0.752E+00  0.751E+00
   8.277  0.557E+01  0.556E+01
   8.279  0.568E+01  0.567E+01
   8.281  0.888E+00  0.887E+00
   8.283  0.182E+01  0.182E+01
   8.285  0.480E+01  0.480E+01
   8.287  0.175E+01  0.175E+01
   8.289  0.882E-01  0.880E-01
   8.291  0.104E-01  0.104E-01
   8.293  0.394E+00  0.393E+00
   8.295  0.214E+01  0.214E+01
   8.297  0.157E+01  0.157E+01
   8.299  0.172E+00  0.171E+00
   8.301  0.505E+00  0.504E+00
   8.303  0.228E+01  0.227E+01
   8.305  0.188E+01  0.187E+01
   8.307  0.312E+01  0.311E+01
   8.309  0.659E+01  0.658E+01
   8.311  0.584E+01  0.584E+01
   8.313  0.110E+01  0.110E+01
   8.315  0.578E-01  0.577E-01
   8.317  0.612E+00  0.611E+00
   8.319  0.234E+01  0.234E+01
   8.321  0.121E+01  0.121E+01
   8.323  0.852E-01  0.850E-01
   8.325  0.241E-01  0.240E-01
   8.327  0.637E+00  0.635E+00
   8.329  0.235E+01  0.235E+01
   8.331  0.122E+01  0.122E+01
   8.333  0.960E+00  0.958E+00
   8.335  0.253E+01  0.252E+01
   8.337  0.272E+01  0.271E+01
   8.339  0.601E+01  0.600E+01
   8.341  0.453E+01  0.452E+01
   8.343  0.256E+01  0.256E+01
   8.345  0.421E+01  0.420E+01
   8.347  0.198E+01  0.198E+01
   8.349  0.177E+00  0.177E+00
   8.351  0.246E-02  0.245E-02
   8.353  0.144E-01  0.143E-01
   8.355  0.488E+00  0.488E+00
   8.357  0.225E+01  0.225E+01
   8.359  0.142E+01  0.141E+01
   8.361  0.660E+00  0.659E+00
   8.363  0.321E+01  0.320E+01
   8.365  0.400E+01  0.400E+01
   8.367  0.265E+01  0.265E+01
   8.369  0.207E+01  0.207E+01
   8.371  0.327E+00  0.326E+00
   8.373  0.710E-02  0.709E-02
   8.375  0.108E-03  0.108E-03
   8.377  0.192E-01  0.192E-01
   8.379  0.576E+00  0.575E+00
   8.381  0.248E+01  0.248E+01
   8.383  0.366E+01  0.365E+01
   8.385  0.720E+01  0.719E+01
   8.387  0.569E+01  0.568E+01
   8.389  0.164E+01  0.163E+01
   8.391  0.120E+00  0.119E+00
   8.393  0.342E+00  0.341E+00
   8.395  0.206E+01  0.206E+01
   8.397  0.210E+01  0.210E+01
   8.399  0.377E+01  0.377E+01
   8.401  0.630E+01  0.629E+01
   8.403  0.239E+01  0.238E+01
   8.405  0.952E+00  0.950E+00
   8.407  0.241E+01  0.240E+01
   8.409  0.111E+01  0.111E+01
   8.411  0.212E+01  0.212E+01
   8.413  0.476E+01  0.475E+01
   8.415  0.154E+01  0.154E+01
   8.417  0.785E+00  0.784E+00
   8.419  0.559E+01  0.558E+01
   8.421  0.969E+01  0.968E+01
   8.423  0.739E+01  0.739E+01
   8.425  0.257E+01  0.257E+01
   8.427  0.236E+01  0.235E+01
   8.429  0.167E+01  0.166E+01
   8.431  0.204E+01  0.204E+01
   8.433  0.375E+01  0.375E+01
   8.435  0.419E+01  0.418E+01
   8.437  0.353E+01  0.353E+01
   8.439  0.275E+01  0.274E+01
   8.441  0.113E+01  0.113E+01
   8.443  0.298E+01  0.298E+01
   8.445  0.561E+01  0.560E+01
   8.447  0.340E+01  0.339E+01
   8.449  0.434E+00  0.434E+00
   8.451  0.164E-01  0.164E-01
   8.453  0.337E+00  0.337E+00
   8.455  0.205E+01  0.205E+01
   8.457  0.170E+01  0.170E+01
   8.459  0.665E+00  0.664E+00
   8.461  0.224E+01  0.224E+01
   8.463  0.142E+01  0.142E+01
   8.465  0.211E+00  0.210E+00
   8.467  0.133E+01  0.133E+01
   8.469  0.365E+01  0.364E+01
   8.471  0.290E+01  0.289E+01
   8.473  0.564E+00  0.563E+00
   8.475  0.175E-01  0.175E-01
   8.477  0.103E-02  0.103E-02
   8.479  0.949E-01  0.946E-01
   8.481  0.131E+01  0.131E+01
   8.483  0.369E+01  0.368E+01
   8.485  0.831E+01  0.830E+01
   8.487  0.970E+01  0.969E+01
   8.489  0.674E+01  0.673E+01
   8.491  0.434E+01  0.434E+01
   8.493  0.426E+01  0.426E+01
   8.495  0.560E+01  0.559E+01
   8.497  0.598E+01  0.598E+01
   8.499  0.427E+01  0.427E+01
   8.501  0.421E+01  0.421E+01
   8.503  0.467E+01  0.466E+01
   8.505  0.363E+01  0.363E+01
   8.507  0.355E+01  0.354E+01
   8.509  0.289E+01  0.289E+01
   8.511  0.267E+01  0.267E+01
   8.513  0.965E+00  0.964E+00
   8.515  0.812E+00  0.811E+00
   8.517  0.240E+01  0.240E+01
   8.519  0.130E+01  0.130E+01
   8.521  0.200E+01  0.200E+01
   8.523  0.181E+01  0.181E+01
   8.525  0.251E+00  0.250E+00
   8.527  0.733E+00  0.731E+00
   8.529  0.428E+01  0.427E+01
   8.531  0.686E+01  0.685E+01
   8.533  0.589E+01  0.588E+01
   8.535  0.747E+01  0.746E+01
   8.537  0.186E+02  0.186E+02
   8.539  0.205E+02  0.204E+02
   8.541  0.137E+02  0.137E+02
   8.543  0.108E+02  0.108E+02
   8.545  0.133E+02  0.133E+02
   8.547  0.122E+02  0.122E+02
   8.549  0.924E+01  0.923E+01
   8.551  0.949E+01  0.948E+01
   8.553  0.831E+01  0.830E+01
   8.555  0.769E+01  0.767E+01
   8.557  0.933E+01  0.932E+01
   8.559  0.432E+01  0.431E+01
   8.561  0.349E+01  0.348E+01
   8.563  0.538E+01  0.537E+01
   8.565  0.771E+01  0.770E+01
   8.567  0.691E+01  0.690E+01
   8.569  0.351E+01  0.351E+01
   8.571  0.448E+01  0.447E+01
   8.573  0.545E+01  0.545E+01
   8.575  0.504E+01  0.504E+01
   8.577  0.556E+01  0.555E+01
   8.579  0.629E+01  0.629E+01
   8.581  0.306E+01  0.305E+01
   8.583  0.813E+01  0.812E+01
   8.585  0.114E+02  0.114E+02
   8.587  0.467E+01  0.466E+01
   8.589  0.260E+01  0.260E+01
   8.591  0.189E+01  0.189E+01
   8.593  0.323E+01  0.323E+01
   8.595  0.567E+01  0.567E+01
   8.597  0.544E+01  0.543E+01
   8.599  0.229E+01  0.228E+01
   8.601  0.196E+01  0.196E+01
   8.603  0.198E+01  0.197E+01
   8.605  0.352E+00  0.352E+00
   8.607  0.146E+01  0.146E+01
   8.609  0.780E+01  0.778E+01
   8.611  0.178E+02  0.177E+02
   8.613  0.186E+02  0.185E+02
   8.615  0.123E+02  0.123E+02
   8.617  0.854E+01  0.852E+01
   8.619  0.760E+01  0.759E+01
   8.621  0.105E+02  0.105E+02
   8.623  0.129E+02  0.128E+02
   8.625  0.599E+01  0.598E+01
   8.627  0.445E+01  0.444E+01
   8.629  0.714E+01  0.713E+01
   8.631  0.526E+01  0.526E+01
   8.633  0.284E+01  0.284E+01
   8.635  0.130E+01  0.130E+01
   8.637  0.400E+01  0.400E+01
   8.639  0.585E+01  0.584E+01
   8.641  0.544E+01  0.544E+01
   8.643  0.719E+01  0.718E+01
   8.645  0.102E+02  0.102E+02
   8.647  0.956E+01  0.954E+01
   8.649  0.398E+01  0.398E+01
   8.651  0.759E+00  0.758E+00
   8.653  0.303E+01  0.303E+01
   8.655  0.783E+01  0.782E+01
   8.657  0.117E+02  0.117E+02
   8.659  0.733E+01  0.732E+01
   8.661  0.516E+01  0.516E+01
   8.663  0.268E+01  0.268E+01
   8.665  0.399E+00  0.399E+00
   8.667  0.240E+01  0.240E+01
   8.669  0.653E+01  0.652E+01
   8.671  0.574E+01  0.573E+01
   8.673  0.356E+01  0.355E+01
   8.675  0.869E+01  0.867E+01
   8.677  0.108E+02  0.108E+02
   8.679  0.797E+01  0.795E+01
   8.681  0.102E+02  0.102E+02
   8.683  0.130E+02  0.130E+02
   8.685  0.705E+01  0.704E+01
   8.687  0.164E+01  0.164E+01
   8.689  0.351E+01  0.351E+01
   8.691  0.549E+01  0.548E+01
   8.693  0.287E+01  0.287E+01
   8.695  0.185E+01  0.184E+01
   8.697  0.312E+01  0.312E+01
   8.699  0.509E+01  0.508E+01
   8.701  0.867E+01  0.866E+01
   8.703  0.108E+02  0.108E+02
   8.705  0.106E+02  0.106E+02
   8.707  0.329E+01  0.328E+01
   8.709  0.542E+01  0.542E+01
   8.711  0.588E+01  0.587E+01
   8.713  0.168E+01  0.167E+01
   8.715  0.685E+01  0.684E+01
   8.717  0.167E+02  0.167E+02
   8.719  0.133E+02  0.133E+02
   8.721  0.175E+02  0.174E+02
   8.723  0.180E+02  0.180E+02
   8.725  0.116E+02  0.115E+02
   8.727  0.458E+01  0.457E+01
   8.729  0.514E+00  0.513E+00
   8.731  0.620E+00  0.619E+00
   8.733  0.234E+01  0.234E+01
   8.735  0.123E+01  0.122E+01
   8.737  0.619E+00  0.618E+00
   8.739  0.372E+01  0.372E+01
   8.741  0.373E+01  0.373E+01
   8.743  0.610E+00  0.609E+00
   8.745  0.114E+01  0.114E+01
   8.747  0.242E+01  0.241E+01
   8.749  0.168E+01  0.168E+01
   8.751  0.363E+01  0.363E+01
   8.753  0.429E+01  0.428E+01
   8.755  0.692E+01  0.689E+01
   8.757  0.496E+01  0.494E+01
   8.759  0.869E+00  0.866E+00
   8.761  0.225E+01  0.224E+01
   8.763  0.367E+01  0.367E+01
   8.765  0.499E+01  0.498E+01
   8.767  0.483E+01  0.481E+01
   8.769  0.101E+01  0.100E+01
   8.771  0.502E+00  0.501E+00
   8.773  0.227E+01  0.227E+01
   8.775  0.257E+01  0.257E+01
   8.777  0.472E+01  0.472E+01
   8.779  0.257E+01  0.256E+01
   8.781  0.198E+00  0.197E+00
   8.783  0.224E-02  0.224E-02
   8.785  0.256E-01  0.256E-01
   8.787  0.670E+00  0.669E+00
   8.789  0.237E+01  0.237E+01
   8.791  0.114E+01  0.114E+01
   8.793  0.367E+00  0.366E+00
   8.795  0.197E+01  0.196E+01
   8.797  0.178E+01  0.178E+01
   8.799  0.220E+00  0.219E+00
   8.801  0.108E+00  0.108E+00
   8.803  0.236E+01  0.235E+01
   8.805  0.720E+01  0.718E+01
   8.807  0.299E+01  0.299E+01
   8.809  0.169E+00  0.169E+00
   8.811  0.169E-01  0.169E-01
   8.813  0.518E+00  0.518E+00
   8.815  0.262E+01  0.262E+01
   8.817  0.383E+01  0.382E+01
   8.819  0.444E+01  0.444E+01
   8.821  0.404E+01  0.403E+01
   8.823  0.152E+01  0.151E+01
   8.825  0.112E+00  0.112E+00
   8.827  0.120E-02  0.120E-02
   8.829  0.517E-03  0.516E-03
   8.831  0.635E-01  0.634E-01
   8.833  0.106E+01  0.106E+01
   8.835  0.239E+01  0.239E+01
   8.837  0.731E+00  0.730E+00
   8.839  0.121E+00  0.121E+00
   8.841  0.131E+01  0.131E+01
   8.843  0.342E+01  0.341E+01
   8.845  0.297E+01  0.297E+01
   8.847  0.769E+00  0.768E+00
   8.849  0.910E+00  0.908E+00
   8.851  0.241E+01  0.241E+01
   8.853  0.893E+00  0.891E+00
   8.855  0.465E-01  0.464E-01
   8.857  0.142E+00  0.142E+00
   8.859  0.151E+01  0.151E+01
   8.861  0.219E+01  0.218E+01
   8.863  0.648E+00  0.646E+00
   8.865  0.180E+01  0.180E+01
   8.867  0.217E+01  0.216E+01
   8.869  0.283E+01  0.283E+01
   8.871  0.456E+01  0.456E+01
   8.873  0.119E+01  0.119E+01
   8.875  0.452E-01  0.451E-01
   8.877  0.245E-03  0.244E-03
   8.879  0.186E-06  0.186E-06
   8.881  0.109E-08  0.108E-08
   8.883  0.422E-05  0.421E-05
   8.885  0.226E-02  0.225E-02
   8.887  0.163E+00  0.163E+00
   8.889  0.160E+01  0.159E+01
   8.891  0.212E+01  0.211E+01
   8.893  0.399E+00  0.398E+00
   8.895  0.771E+00  0.770E+00
   8.897  0.539E+01  0.538E+01
   8.899  0.872E+01  0.870E+01
   8.901  0.515E+01  0.514E+01
   8.903  0.205E+01  0.205E+01
   8.905  0.247E+01  0.247E+01
   8.907  0.102E+01  0.102E+01
   8.909  0.586E-01  0.585E-01
   8.911  0.457E-03  0.456E-03
   8.913  0.481E-06  0.480E-06
   8.915  0.358E-08  0.358E-08
   8.917  0.108E-04  0.108E-04
   8.919  0.455E-02  0.454E-02
   8.921  0.273E+00  0.273E+00
   8.923  0.255E+01  0.255E+01
   8.925  0.428E+01  0.427E+01
   8.927  0.136E+01  0.136E+01
   8.929  0.832E-01  0.830E-01
   8.931  0.379E+00  0.378E+00
   8.933  0.212E+01  0.211E+01
   8.935  0.160E+01  0.160E+01
   8.937  0.164E+00  0.164E+00
   8.939  0.228E-02  0.228E-02
   8.941  0.433E-05  0.432E-05
   8.943  0.756E-04  0.755E-04
   8.945  0.184E-01  0.184E-01
   8.947  0.685E+00  0.684E+00
   8.949  0.477E+01  0.476E+01
   8.951  0.798E+01  0.797E+01
   8.953  0.334E+01  0.333E+01
   8.955  0.297E+00  0.296E+00
   8.957  0.453E-02  0.452E-02
   8.959  0.103E-04  0.103E-04
   8.961  0.581E-08  0.580E-08
   8.963  0.828E-05  0.827E-05
   8.965  0.367E-02  0.366E-02
   8.967  0.221E+00  0.221E+00
   8.969  0.187E+01  0.187E+01
   8.971  0.343E+01  0.343E+01
   8.973  0.459E+01  0.458E+01
   8.975  0.258E+01  0.258E+01
   8.977  0.173E+01  0.173E+01
   8.979  0.220E+01  0.220E+01
   8.981  0.449E+00  0.448E+00
   8.983  0.343E+00  0.342E+00
   8.985  0.204E+01  0.203E+01
   8.987  0.170E+01  0.170E+01
   8.989  0.322E+00  0.321E+00
   8.991  0.195E+01  0.194E+01
   8.993  0.460E+01  0.459E+01
   8.995  0.177E+01  0.177E+01
   8.997  0.199E+00  0.199E+00
   8.999  0.126E+01  0.126E+01
   9.001  0.243E+01  0.242E+01
   9.003  0.193E+01  0.193E+01
   9.005  0.307E+01  0.306E+01
   9.007  0.606E+01  0.605E+01
   9.009  0.569E+01  0.569E+01
   9.011  0.822E+00  0.821E+00
   9.013  0.568E-01  0.567E-01
   9.015  0.117E+01  0.117E+01
   9.017  0.484E+01  0.484E+01
   9.019  0.536E+01  0.535E+01
   9.021  0.682E+01  0.681E+01
   9.023  0.329E+01  0.328E+01
   9.025  0.239E+01  0.239E+01
   9.027  0.157E+01  0.157E+01
   9.029  0.396E+00  0.396E+00
   9.031  0.185E+01  0.185E+01
   9.033  0.191E+01  0.190E+01
   9.035  0.267E+00  0.266E+00
   9.037  0.582E-01  0.581E-01
   9.039  0.972E+00  0.971E+00
   9.041  0.241E+01  0.240E+01
   9.043  0.811E+00  0.810E+00
   9.045  0.312E+00  0.311E+00
   9.047  0.199E+01  0.199E+01
   9.049  0.303E+01  0.303E+01
   9.051  0.422E+01  0.421E+01
   9.053  0.287E+01  0.287E+01
   9.055  0.415E+00  0.415E+00
   9.057  0.506E-01  0.505E-01
   9.059  0.855E+00  0.853E+00
   9.061  0.241E+01  0.241E+01
   9.063  0.112E+01  0.112E+01
   9.065  0.193E+01  0.192E+01
   9.067  0.362E+01  0.361E+01
   9.069  0.245E+01  0.244E+01
   9.071  0.468E+00  0.467E+00
   9.073  0.118E+01  0.118E+01
   9.075  0.236E+01  0.235E+01
   9.077  0.642E+00  0.641E+00
   9.079  0.134E+00  0.134E+00
   9.081  0.136E+01  0.136E+01
   9.083  0.227E+01  0.227E+01
   9.085  0.532E+00  0.531E+00
   9.087  0.592E+00  0.591E+00
   9.089  0.232E+01  0.232E+01
   9.091  0.126E+01  0.126E+01
   9.093  0.931E-01  0.929E-01
   9.095  0.105E-02  0.105E-02
   9.097  0.260E-01  0.259E-01
   9.099  0.811E+00  0.809E+00
   9.101  0.398E+01  0.397E+01
   9.103  0.327E+01  0.327E+01
   9.105  0.446E+00  0.445E+00
   9.107  0.940E-02  0.938E-02
   9.109  0.287E-04  0.286E-04
   9.111  0.157E-07  0.156E-07
   9.113  0.106E-04  0.106E-04
   9.115  0.438E-02  0.437E-02
   9.117  0.246E+00  0.245E+00
   9.119  0.197E+01  0.196E+01
   9.121  0.326E+01  0.326E+01
   9.123  0.253E+01  0.253E+01
   9.125  0.516E+00  0.516E+00
   9.127  0.170E-01  0.170E-01
   9.129  0.120E+00  0.120E+00
   9.131  0.141E+01  0.141E+01
   9.133  0.224E+01  0.224E+01
   9.135  0.482E+00  0.481E+00
   9.137  0.140E-01  0.140E-01
   9.139  0.634E-04  0.633E-04
   9.141  0.364E-02  0.363E-02
   9.143  0.219E+00  0.219E+00
   9.145  0.178E+01  0.178E+01
   9.147  0.197E+01  0.196E+01
   9.149  0.295E+00  0.295E+00
   9.151  0.134E+00  0.134E+00
   9.153  0.146E+01  0.145E+01
   9.155  0.250E+01  0.249E+01
   9.157  0.239E+01  0.238E+01
   9.159  0.184E+01  0.183E+01
   9.161  0.234E+00  0.233E+00
   9.163  0.748E-01  0.746E-01
   9.165  0.111E+01  0.111E+01
   9.167  0.238E+01  0.237E+01
   9.169  0.927E+00  0.924E+00
   9.171  0.187E+01  0.187E+01
   9.173  0.195E+01  0.194E+01
   9.175  0.109E+01  0.109E+01
   9.177  0.245E+01  0.245E+01
   9.179  0.182E+01  0.182E+01
   9.181  0.246E+01  0.245E+01
   9.183  0.909E+00  0.906E+00
   9.185  0.464E-01  0.462E-01
   9.187  0.320E-03  0.319E-03
   9.189  0.299E-06  0.298E-06
   9.191  0.113E-08  0.113E-08
   9.193  0.430E-05  0.430E-05
   9.195  0.229E-02  0.229E-02
   9.197  0.165E+00  0.164E+00
   9.199  0.160E+01  0.160E+01
   9.201  0.212E+01  0.211E+01
   9.203  0.455E+00  0.455E+00
   9.205  0.118E+01  0.117E+01
   9.207  0.236E+01  0.235E+01
   9.209  0.645E+00  0.643E+00
   9.211  0.239E-01  0.238E-01
   9.213  0.120E-03  0.119E-03
   9.215  0.259E-06  0.258E-06
   9.217  0.216E-03  0.216E-03
   9.219  0.357E-01  0.356E-01
   9.221  0.796E+00  0.794E+00
   9.223  0.240E+01  0.240E+01
   9.225  0.983E+00  0.981E+00
   9.227  0.121E+00  0.121E+00
   9.229  0.109E+01  0.109E+01
   9.231  0.238E+01  0.238E+01
   9.233  0.707E+00  0.706E+00
   9.235  0.284E-01  0.283E-01
   9.237  0.559E-03  0.557E-03
   9.239  0.587E-01  0.585E-01
   9.241  0.126E+01  0.126E+01
   9.243  0.438E+01  0.436E+01
   9.245  0.259E+01  0.258E+01
   9.247  0.255E+00  0.254E+00
   9.249  0.384E-02  0.382E-02
   9.251  0.133E-04  0.133E-04
   9.253  0.261E-02  0.260E-02
   9.255  0.189E+00  0.188E+00
   9.257  0.210E+01  0.209E+01
   9.259  0.430E+01  0.429E+01
   9.261  0.233E+01  0.232E+01
   9.263  0.240E+01  0.239E+01
   9.265  0.139E+01  0.139E+01
   9.267  0.264E+00  0.264E+00
   9.269  0.154E+01  0.154E+01
   9.271  0.216E+01  0.216E+01
   9.273  0.411E+00  0.410E+00
   9.275  0.106E-01  0.105E-01
   9.277  0.368E-04  0.367E-04
   9.279  0.173E-07  0.173E-07
   9.281  0.110E-11  0.110E-11
   9.283  0.952E-17  0.950E-17
   9.285  0.000E+00  0.000E+00
   9.287  0.167E-13  0.167E-13
   9.289  0.561E-09  0.560E-09
   9.291  0.254E-05  0.254E-05
   9.293  0.156E-02  0.156E-02
   9.295  0.130E+00  0.129E+00
   9.297  0.146E+01  0.145E+01
   9.299  0.224E+01  0.223E+01
   9.301  0.104E+01  0.104E+01
   9.303  0.235E+01  0.234E+01
   9.305  0.158E+01  0.157E+01
   9.307  0.213E+01  0.212E+01
   9.309  0.171E+01  0.170E+01
   9.311  0.193E+00  0.193E+00
   9.313  0.452E-02  0.451E-02
   9.315  0.130E+00  0.130E+00
   9.317  0.152E+01  0.152E+01
   9.319  0.329E+01  0.328E+01
   9.321  0.284E+01  0.284E+01
   9.323  0.735E+00  0.732E+00
   9.325  0.296E-01  0.295E-01
   9.327  0.164E-03  0.163E-03
   9.329  0.736E-04  0.735E-04
   9.331  0.171E-01  0.171E-01
   9.333  0.538E+00  0.537E+00
   9.335  0.229E+01  0.229E+01
   9.337  0.132E+01  0.132E+01
   9.339  0.103E+00  0.103E+00
   9.341  0.111E-02  0.110E-02
   9.343  0.622E-02  0.620E-02
   9.345  0.302E+00  0.301E+00
   9.347  0.198E+01  0.198E+01
   9.349  0.177E+01  0.177E+01
   9.351  0.528E+00  0.526E+00
   9.353  0.202E+01  0.201E+01
   9.355  0.187E+01  0.186E+01
   9.357  0.167E+01  0.166E+01
   9.359  0.221E+01  0.221E+01
   9.361  0.453E+00  0.451E+00
   9.363  0.930E-01  0.927E-01
   9.365  0.118E+01  0.118E+01
   9.367  0.235E+01  0.235E+01
   9.369  0.635E+00  0.633E+00
   9.371  0.126E+00  0.126E+00
   9.373  0.132E+01  0.132E+01
   9.375  0.229E+01  0.229E+01
   9.377  0.542E+00  0.540E+00
   9.379  0.175E+00  0.174E+00
   9.381  0.158E+01  0.157E+01
   9.383  0.214E+01  0.213E+01
   9.385  0.392E+00  0.390E+00
   9.387  0.973E-02  0.969E-02
   9.389  0.307E-02  0.306E-02
   9.391  0.196E+00  0.195E+00
   9.393  0.171E+01  0.171E+01
   9.395  0.203E+01  0.202E+01
   9.397  0.325E+00  0.324E+00
   9.399  0.667E-01  0.665E-01
   9.401  0.103E+01  0.102E+01
   9.403  0.240E+01  0.239E+01
   9.405  0.756E+00  0.753E+00
   9.407  0.323E-01  0.322E-01
   9.409  0.827E-02  0.824E-02
   9.411  0.361E+00  0.360E+00
   9.413  0.248E+01  0.247E+01
   9.415  0.381E+01  0.380E+01
   9.417  0.199E+01  0.199E+01
   9.419  0.204E+01  0.204E+01
   9.421  0.207E+01  0.206E+01
   9.423  0.215E+01  0.215E+01
   9.425  0.381E+01  0.380E+01
   9.427  0.232E+01  0.231E+01
   9.429  0.357E+00  0.355E+00
   9.431  0.902E+00  0.899E+00
   9.433  0.241E+01  0.240E+01
   9.435  0.878E+00  0.874E+00
   9.437  0.433E-01  0.431E-01
   9.439  0.289E-03  0.288E-03
   9.441  0.699E-03  0.696E-03
   9.443  0.977E-01  0.973E-01
   9.445  0.189E+01  0.188E+01
   9.447  0.555E+01  0.553E+01
   9.449  0.411E+01  0.409E+01
   9.451  0.201E+01  0.200E+01
   9.453  0.749E+01  0.746E+01
   9.455  0.114E+02  0.113E+02
   9.457  0.107E+02  0.107E+02
   9.459  0.976E+01  0.973E+01
   9.461  0.388E+01  0.387E+01
   9.463  0.299E+01  0.298E+01
   9.465  0.294E+01  0.293E+01
   9.467  0.250E+01  0.249E+01
   9.469  0.246E+01  0.245E+01
   9.471  0.142E+01  0.141E+01
   9.473  0.243E+01  0.242E+01
   9.475  0.959E+00  0.955E+00
   9.477  0.532E-01  0.530E-01
   9.479  0.129E+00  0.128E+00
   9.481  0.145E+01  0.145E+01
   9.483  0.223E+01  0.222E+01
   9.485  0.105E+01  0.104E+01
   9.487  0.393E+01  0.391E+01
   9.489  0.357E+01  0.356E+01
   9.491  0.489E+00  0.487E+00
   9.493  0.876E+00  0.872E+00
   9.495  0.242E+01  0.241E+01
   9.497  0.116E+01  0.116E+01
   9.499  0.194E+01  0.194E+01
   9.501  0.225E+01  0.224E+01
   9.503  0.246E+01  0.245E+01
   9.505  0.282E+01  0.281E+01
   9.507  0.250E+01  0.249E+01
   9.509  0.604E+00  0.601E+00
   9.511  0.210E-01  0.209E-01
   9.513  0.988E-04  0.984E-04
   9.515  0.631E-07  0.628E-07
   9.517  0.545E-11  0.543E-11
   9.519  0.192E-11  0.192E-11
   9.521  0.272E-07  0.271E-07
   9.523  0.520E-04  0.517E-04
   9.525  0.134E-01  0.134E-01
   9.527  0.471E+00  0.469E+00
   9.529  0.223E+01  0.222E+01
   9.531  0.143E+01  0.143E+01
   9.533  0.124E+00  0.124E+00
   9.535  0.146E-02  0.145E-02
   9.537  0.232E-05  0.231E-05
   9.539  0.499E-09  0.497E-09
   9.541  0.732E-09  0.730E-09
   9.543  0.314E-05  0.313E-05
   9.545  0.182E-02  0.181E-02
   9.547  0.143E+00  0.142E+00
   9.549  0.152E+01  0.151E+01
   9.551  0.218E+01  0.217E+01
   9.553  0.555E+00  0.553E+00
   9.555  0.147E+01  0.147E+01
   9.557  0.221E+01  0.220E+01
   9.559  0.453E+00  0.451E+00
   9.561  0.125E-01  0.125E-01
   9.563  0.470E-04  0.468E-04
   9.565  0.239E-07  0.238E-07
   9.567  0.164E-11  0.163E-11
   9.569  0.152E-16  0.152E-16
   9.571  0.000E+00  0.000E+00
   9.573  0.000E+00  0.000E+00
   9.575  0.232E-14  0.231E-14
   9.577  0.109E-09  0.109E-09
   9.579  0.697E-06  0.694E-06
   9.581  0.602E-03  0.599E-03
   9.583  0.703E-01  0.699E-01
   9.585  0.111E+01  0.111E+01
   9.587  0.238E+01  0.237E+01
   9.589  0.688E+00  0.685E+00
   9.591  0.273E-01  0.272E-01
   9.593  0.477E-01  0.476E-01
   9.595  0.921E+00  0.918E+00
   9.597  0.241E+01  0.240E+01
   9.599  0.854E+00  0.851E+00
   9.601  0.410E-01  0.408E-01
   9.603  0.266E-03  0.265E-03
   9.605  0.233E-06  0.233E-06
   9.607  0.278E-10  0.277E-10
   9.609  0.447E-15  0.445E-15
   9.611  0.000E+00  0.000E+00
   9.613  0.150E-16  0.150E-16
   9.615  0.162E-11  0.161E-11
   9.617  0.237E-07  0.236E-07
   9.619  0.467E-04  0.465E-04
   9.621  0.125E-01  0.124E-01
   9.623  0.452E+00  0.450E+00
   9.625  0.221E+01  0.220E+01
   9.627  0.146E+01  0.146E+01
   9.629  0.131E+00  0.131E+00
   9.631  0.159E-02  0.159E-02
   9.633  0.262E-05  0.260E-05
   9.635  0.581E-09  0.579E-09
   9.637  0.175E-13  0.174E-13
   9.639  0.383E-16  0.382E-16
   9.641  0.356E-11  0.354E-11
   9.643  0.447E-07  0.446E-07
   9.645  0.765E-04  0.762E-04
   9.647  0.180E-01  0.179E-01
   9.649  0.604E+00  0.602E+00
   9.651  0.335E+01  0.334E+01
   9.653  0.444E+01  0.442E+01
   9.655  0.325E+01  0.324E+01
   9.657  0.109E+01  0.109E+01
   9.659  0.292E+00  0.291E+00
   9.661  0.181E+01  0.180E+01
   9.663  0.194E+01  0.193E+01
   9.665  0.281E+00  0.280E+00
   9.667  0.554E-02  0.552E-02
   9.669  0.824E-02  0.820E-02
   9.671  0.359E+00  0.357E+00
   9.673  0.227E+01  0.226E+01
   9.675  0.335E+01  0.333E+01
   9.677  0.221E+01  0.220E+01
   9.679  0.333E+00  0.331E+00
   9.681  0.724E-02  0.721E-02
   9.683  0.215E-04  0.214E-04
   9.685  0.862E-08  0.858E-08
   9.687  0.469E-12  0.466E-12
   9.689  0.170E-15  0.169E-15
   9.691  0.122E-10  0.121E-10
   9.693  0.121E-06  0.120E-06
   9.695  0.162E-03  0.161E-03
   9.697  0.296E-01  0.294E-01
   9.699  0.767E+00  0.762E+00
   9.701  0.350E+01  0.349E+01
   9.703  0.530E+01  0.528E+01
   9.705  0.289E+01  0.287E+01
   9.707  0.323E+00  0.321E+00
   9.709  0.570E-02  0.568E-02
   9.711  0.145E-04  0.144E-04
   9.713  0.510E-08  0.507E-08
   9.715  0.197E-10  0.196E-10
   9.717  0.176E-06  0.175E-06
   9.719  0.215E-03  0.214E-03
   9.721  0.355E-01  0.353E-01
   9.723  0.794E+00  0.791E+00
   9.725  0.240E+01  0.239E+01
   9.727  0.985E+00  0.981E+00
   9.729  0.574E-01  0.572E-01
   9.731  0.188E+00  0.186E+00
   9.733  0.168E+01  0.167E+01
   9.735  0.205E+01  0.204E+01
   9.737  0.338E+00  0.336E+00
   9.739  0.755E-02  0.750E-02
   9.741  0.228E-04  0.227E-04
   9.743  0.299E-04  0.298E-04
   9.745  0.915E-02  0.910E-02
   9.747  0.378E+00  0.376E+00
   9.749  0.212E+01  0.210E+01
   9.751  0.160E+01  0.160E+01
   9.753  0.252E+00  0.251E+00
   9.755  0.123E+01  0.123E+01
   9.757  0.233E+01  0.233E+01
   9.759  0.599E+00  0.597E+00
   9.761  0.208E-01  0.207E-01
   9.763  0.979E-04  0.975E-04
   9.765  0.107E-03  0.107E-03
   9.767  0.222E-01  0.220E-01
   9.769  0.620E+00  0.616E+00
   9.771  0.235E+01  0.233E+01
   9.773  0.120E+01  0.119E+01
   9.775  0.103E+00  0.102E+00
   9.777  0.581E+00  0.578E+00
   9.779  0.232E+01  0.231E+01
   9.781  0.126E+01  0.125E+01
   9.783  0.922E-01  0.918E-01
   9.785  0.915E-03  0.910E-03
   9.787  0.640E-04  0.637E-04
   9.789  0.168E-01  0.167E-01
   9.791  0.654E+00  0.651E+00
   9.793  0.384E+01  0.382E+01
   9.795  0.359E+01  0.357E+01
   9.797  0.161E+01  0.160E+01
   9.799  0.239E+01  0.237E+01
   9.801  0.689E+00  0.685E+00
   9.803  0.667E-01  0.664E-01
   9.805  0.841E+00  0.837E+00
   9.807  0.242E+01  0.241E+01
   9.809  0.154E+01  0.153E+01
   9.811  0.402E+01  0.400E+01
   9.813  0.353E+01  0.351E+01
   9.815  0.424E+00  0.422E+00
   9.817  0.691E-02  0.688E-02
   9.819  0.732E-03  0.728E-03
   9.821  0.787E-01  0.783E-01
   9.823  0.117E+01  0.116E+01
   9.825  0.236E+01  0.235E+01
   9.827  0.800E+00  0.795E+00
   9.829  0.175E+01  0.174E+01
   9.831  0.446E+01  0.443E+01
   9.833  0.511E+01  0.508E+01
   9.835  0.132E+01  0.131E+01
   9.837  0.497E-01  0.494E-01
   9.839  0.257E-03  0.256E-03
   9.841  0.182E-06  0.181E-06
   9.843  0.350E-06  0.348E-06
   9.845  0.373E-03  0.371E-03
   9.847  0.562E-01  0.559E-01
   9.849  0.125E+01  0.125E+01
   9.851  0.443E+01  0.440E+01
   9.853  0.308E+01  0.306E+01
   9.855  0.251E+01  0.249E+01
   9.857  0.137E+01  0.137E+01
   9.859  0.211E+00  0.210E+00
   9.861  0.130E+01  0.129E+01
   9.863  0.231E+01  0.229E+01
   9.865  0.688E+00  0.685E+00
   9.867  0.150E+01  0.150E+01
   9.869  0.220E+01  0.219E+01
   9.871  0.443E+00  0.441E+00
   9.873  0.175E+00  0.174E+00
   9.875  0.163E+01  0.162E+01
   9.877  0.306E+01  0.304E+01
   9.879  0.549E+01  0.546E+01
   9.881  0.544E+01  0.541E+01
   9.883  0.126E+01  0.126E+01
   9.885  0.553E-01  0.550E-01
   9.887  0.375E-03  0.373E-03
   9.889  0.359E-06  0.357E-06
   9.891  0.475E-10  0.473E-10
   9.893  0.815E-08  0.809E-08
   9.895  0.206E-04  0.204E-04
   9.897  0.702E-02  0.697E-02
   9.899  0.324E+00  0.322E+00
   9.901  0.203E+01  0.202E+01
   9.903  0.196E+01  0.195E+01
   9.905  0.206E+01  0.205E+01
   9.907  0.189E+01  0.188E+01
   9.909  0.290E+00  0.289E+00
   9.911  0.741E+00  0.736E+00
   9.913  0.241E+01  0.239E+01
   9.915  0.158E+01  0.157E+01
   9.917  0.235E+01  0.234E+01
   9.919  0.133E+01  0.132E+01
   9.921  0.162E+00  0.161E+00
   9.923  0.128E+01  0.127E+01
   9.925  0.446E+01  0.444E+01
   9.927  0.252E+01  0.251E+01
   9.929  0.226E+00  0.225E+00
   9.931  0.306E-02  0.305E-02
   9.933  0.593E-05  0.590E-05
   9.935  0.160E-08  0.159E-08
   9.937  0.590E-13  0.588E-13
   9.939  0.334E-14  0.331E-14
   9.941  0.148E-09  0.147E-09
   9.943  0.887E-06  0.880E-06
   9.945  0.723E-03  0.717E-03
   9.947  0.811E-01  0.804E-01
   9.949  0.133E+01  0.132E+01
   9.951  0.394E+01  0.391E+01
   9.953  0.277E+01  0.275E+01
   9.955  0.412E+00  0.409E+00
   9.957  0.972E-02  0.965E-02
   9.959  0.974E-02  0.967E-02
   9.961  0.391E+00  0.389E+00
   9.963  0.214E+01  0.212E+01
   9.965  0.158E+01  0.157E+01
   9.967  0.158E+00  0.157E+00
   9.969  0.211E-01  0.209E-01
   9.971  0.569E+00  0.566E+00
   9.973  0.232E+01  0.230E+01
   9.975  0.128E+01  0.127E+01
   9.977  0.410E+00  0.407E+00
   9.979  0.248E+01  0.247E+01
   9.981  0.489E+01  0.487E+01
   9.983  0.409E+01  0.408E+01
   9.985  0.988E+00  0.984E+00
   9.987  0.424E-01  0.422E-01
   9.989  0.647E-03  0.644E-03
   9.991  0.557E-01  0.554E-01
   9.993  0.121E+01  0.120E+01
   9.995  0.429E+01  0.426E+01
   9.997  0.271E+01  0.269E+01
   9.999  0.580E+00  0.575E+00
  10.001  0.196E+01  0.194E+01
  10.003  0.180E+01  0.178E+01
  10.005  0.224E+00  0.222E+00
  10.007  0.377E-02  0.374E-02
  10.009  0.860E-05  0.853E-05
  10.011  0.285E-08  0.282E-08
  10.013  0.109E-05  0.108E-05
  10.015  0.836E-03  0.831E-03
  10.017  0.871E-01  0.865E-01
  10.019  0.124E+01  0.123E+01
  10.021  0.275E+01  0.273E+01
  10.023  0.277E+01  0.275E+01
  10.025  0.156E+01  0.155E+01
  10.027  0.147E+00  0.146E+00
  10.029  0.194E-02  0.193E-02
  10.031  0.872E-02  0.868E-02
  10.033  0.368E+00  0.366E+00
  10.035  0.210E+01  0.209E+01
  10.037  0.163E+01  0.162E+01
  10.039  0.322E+00  0.320E+00
  10.041  0.212E+01  0.211E+01
  10.043  0.619E+01  0.616E+01
  10.045  0.436E+01  0.433E+01
  10.047  0.373E+01  0.371E+01
  10.049  0.427E+01  0.425E+01
  10.051  0.291E+01  0.289E+01
  10.053  0.547E+01  0.544E+01
  10.055  0.705E+01  0.701E+01
  10.057  0.264E+01  0.262E+01
  10.059  0.242E+01  0.241E+01
  10.061  0.287E+01  0.285E+01
  10.063  0.111E+02  0.110E+02
  10.065  0.127E+02  0.126E+02
  10.067  0.408E+01  0.406E+01
  10.069  0.600E+00  0.596E+00
  10.071  0.185E-01  0.183E-01
  10.073  0.878E-03  0.873E-03
  10.075  0.843E-01  0.839E-01
  10.077  0.121E+01  0.120E+01
  10.079  0.234E+01  0.233E+01
  10.081  0.630E+00  0.627E+00
  10.083  0.525E+00  0.521E+00
  10.085  0.226E+01  0.225E+01
  10.087  0.138E+01  0.137E+01
  10.089  0.113E+00  0.113E+00
  10.091  0.176E-01  0.175E-01
  10.093  0.640E+00  0.634E+00
  10.095  0.380E+01  0.377E+01
  10.097  0.356E+01  0.353E+01
  10.099  0.541E+00  0.538E+00
  10.101  0.551E+00  0.548E+00
  10.103  0.229E+01  0.228E+01
  10.105  0.132E+01  0.131E+01
  10.107  0.181E+00  0.180E+00
  10.109  0.154E+01  0.153E+01
  10.111  0.462E+01  0.458E+01
  10.113  0.218E+01  0.216E+01
  10.115  0.844E+00  0.839E+00
  10.117  0.238E+01  0.237E+01
  10.119  0.111E+01  0.110E+01
  10.121  0.698E-01  0.694E-01
  10.123  0.596E-03  0.592E-03
  10.125  0.688E-06  0.684E-06
  10.127  0.108E-09  0.107E-09
  10.129  0.680E-08  0.676E-08
  10.131  0.209E-04  0.208E-04
  10.133  0.866E-02  0.862E-02
  10.135  0.487E+00  0.484E+00
  10.137  0.373E+01  0.371E+01
  10.139  0.457E+01  0.454E+01
  10.141  0.293E+01  0.291E+01
  10.143  0.104E+01  0.103E+01
  10.145  0.128E+00  0.127E+00
  10.147  0.116E+01  0.115E+01
  10.149  0.344E+01  0.341E+01
  10.151  0.309E+01  0.307E+01
  10.153  0.101E+01  0.998E+00
  10.155  0.228E+01  0.227E+01
  10.157  0.409E+01  0.406E+01
  10.159  0.180E+01  0.179E+01
  10.161  0.151E+00  0.150E+00
  10.163  0.346E-01  0.344E-01
  10.165  0.123E+01  0.122E+01
  10.167  0.742E+01  0.737E+01
  10.169  0.731E+01  0.726E+01
  10.171  0.279E+01  0.277E+01
  10.173  0.108E+02  0.108E+02
  10.175  0.124E+02  0.124E+02
  10.177  0.626E+01  0.623E+01
  10.179  0.455E+01  0.453E+01
  10.181  0.533E+01  0.530E+01
  10.183  0.459E+01  0.457E+01
  10.185  0.824E+01  0.820E+01
  10.187  0.138E+02  0.138E+02
  10.189  0.867E+01  0.863E+01
  10.191  0.455E+01  0.453E+01
  10.193  0.611E+01  0.608E+01
  10.195  0.683E+01  0.680E+01
  10.197  0.822E+01  0.818E+01
  10.199  0.808E+01  0.804E+01
  10.201  0.744E+01  0.740E+01
  10.203  0.190E+01  0.189E+01
  10.205  0.576E+00  0.573E+00
  10.207  0.327E+01  0.325E+01
  10.209  0.734E+01  0.730E+01
  10.211  0.652E+01  0.648E+01
  10.213  0.595E+01  0.591E+01
  10.215  0.540E+01  0.537E+01
  10.217  0.330E+01  0.329E+01
  10.219  0.388E+01  0.386E+01
  10.221  0.493E+01  0.491E+01
  10.223  0.489E+01  0.486E+01
  10.225  0.351E+01  0.348E+01
  10.227  0.788E+01  0.782E+01
  10.229  0.916E+01  0.910E+01
  10.231  0.874E+01  0.869E+01
  10.233  0.516E+01  0.513E+01
  10.235  0.742E+00  0.738E+00
  10.237  0.171E-01  0.170E-01
  10.239  0.977E-01  0.972E-01
  10.241  0.246E+01  0.245E+01
  10.243  0.972E+01  0.967E+01
  10.245  0.907E+01  0.901E+01
  10.247  0.380E+01  0.378E+01
  10.249  0.635E+00  0.631E+00
  10.251  0.156E+01  0.155E+01
  10.253  0.226E+01  0.224E+01
  10.255  0.203E+01  0.202E+01
  10.257  0.447E+01  0.445E+01
  10.259  0.292E+01  0.290E+01
  10.261  0.432E+01  0.430E+01
  10.263  0.575E+01  0.572E+01
  10.265  0.205E+01  0.203E+01
  10.267  0.351E+00  0.349E+00
  10.269  0.297E+01  0.295E+01
  10.271  0.786E+01  0.781E+01
  10.273  0.721E+01  0.716E+01
  10.275  0.359E+01  0.356E+01
  10.277  0.362E+01  0.359E+01
  10.279  0.359E+01  0.357E+01
  10.281  0.828E+00  0.824E+00
  10.283  0.518E-01  0.515E-01
  10.285  0.707E+00  0.702E+00
  10.287  0.405E+01  0.401E+01
  10.289  0.570E+01  0.566E+01
  10.291  0.521E+01  0.517E+01
  10.293  0.136E+01  0.135E+01
  10.295  0.366E+00  0.364E+00
  10.297  0.295E+01  0.293E+01
  10.299  0.794E+01  0.788E+01
  10.301  0.103E+02  0.103E+02
  10.303  0.387E+01  0.385E+01
  10.305  0.302E+00  0.300E+00
  10.307  0.131E+01  0.130E+01
  10.309  0.465E+01  0.462E+01
  10.311  0.237E+01  0.235E+01
  10.313  0.172E+00  0.171E+00
  10.315  0.178E-02  0.177E-02
  10.317  0.102E-03  0.102E-03
  10.319  0.211E-01  0.210E-01
  10.321  0.603E+00  0.600E+00
  10.323  0.236E+01  0.235E+01
  10.325  0.197E+01  0.196E+01
  10.327  0.397E+01  0.395E+01
  10.329  0.339E+01  0.337E+01
  10.331  0.496E+00  0.493E+00
  10.333  0.392E+00  0.389E+00
  10.335  0.509E+01  0.505E+01
  10.337  0.104E+02  0.103E+02
  10.339  0.644E+01  0.639E+01
  10.341  0.561E+01  0.557E+01
  10.343  0.191E+01  0.189E+01
  10.345  0.386E+00  0.383E+00
  10.347  0.325E+01  0.323E+01
  10.349  0.714E+01  0.709E+01
  10.351  0.534E+01  0.530E+01
  10.353  0.104E+01  0.103E+01
  10.355  0.230E+00  0.229E+00
  10.357  0.172E+01  0.171E+01
  10.359  0.220E+01  0.219E+01
  10.361  0.202E+01  0.201E+01
  10.363  0.316E+01  0.315E+01
  10.365  0.491E+01  0.488E+01
  10.367  0.334E+01  0.332E+01
  10.369  0.337E+01  0.335E+01
  10.371  0.422E+01  0.419E+01
  10.373  0.371E+01  0.369E+01
  10.375  0.340E+01  0.338E+01
  10.377  0.407E+01  0.404E+01
  10.379  0.458E+01  0.454E+01
  10.381  0.206E+01  0.204E+01
  10.383  0.219E+01  0.216E+01
  10.385  0.167E+01  0.165E+01
  10.387  0.267E+00  0.264E+00
  10.389  0.159E+01  0.158E+01
  10.391  0.459E+01  0.455E+01
  10.393  0.213E+01  0.212E+01
  10.395  0.156E+00  0.155E+00
  10.397  0.175E-02  0.174E-02
  10.399  0.145E-01  0.144E-01
  10.401  0.687E+00  0.680E+00
  10.403  0.551E+01  0.546E+01
  10.405  0.861E+01  0.854E+01
  10.407  0.468E+01  0.464E+01
  10.409  0.378E+01  0.376E+01
  10.411  0.361E+01  0.358E+01
  10.413  0.397E+01  0.393E+01
  10.415  0.283E+01  0.280E+01
  10.417  0.133E+01  0.132E+01
  10.419  0.269E+01  0.268E+01
  10.421  0.288E+01  0.286E+01
  10.423  0.190E+01  0.188E+01
  10.425  0.804E+00  0.798E+00
  10.427  0.361E+01  0.359E+01
  10.429  0.657E+01  0.652E+01
  10.431  0.141E+02  0.140E+02
  10.433  0.171E+02  0.170E+02
  10.435  0.162E+02  0.161E+02
  10.437  0.725E+01  0.719E+01
  10.439  0.613E+01  0.608E+01
  10.441  0.816E+01  0.810E+01
  10.443  0.989E+01  0.981E+01
  10.445  0.137E+02  0.136E+02
  10.447  0.738E+01  0.732E+01
  10.449  0.428E+01  0.424E+01
  10.451  0.285E+01  0.282E+01
  10.453  0.390E+01  0.387E+01
  10.455  0.479E+01  0.476E+01
  10.457  0.117E+02  0.116E+02
  10.459  0.136E+02  0.135E+02
  10.461  0.614E+01  0.609E+01
  10.463  0.468E+01  0.463E+01
  10.465  0.117E+02  0.116E+02
  10.467  0.128E+02  0.127E+02
  10.469  0.712E+01  0.706E+01
  10.471  0.225E+01  0.223E+01
  10.473  0.748E+00  0.739E+00
  10.475  0.361E+01  0.357E+01
  10.477  0.925E+01  0.917E+01
  10.479  0.154E+02  0.152E+02
  10.481  0.128E+02  0.127E+02
  10.483  0.990E+01  0.983E+01
  10.485  0.700E+01  0.695E+01
  10.487  0.122E+01  0.121E+01
  10.489  0.431E-01  0.428E-01
  10.491  0.510E+00  0.505E+00
  10.493  0.369E+01  0.366E+01
  10.495  0.472E+01  0.468E+01
  10.497  0.574E+01  0.570E+01
  10.499  0.559E+01  0.555E+01
  10.501  0.365E+01  0.363E+01
  10.503  0.572E+01  0.568E+01
  10.505  0.718E+01  0.712E+01
  10.507  0.970E+01  0.964E+01
  10.509  0.550E+01  0.547E+01
  10.511  0.785E+01  0.778E+01
  10.513  0.104E+02  0.103E+02
  10.515  0.616E+01  0.612E+01
  10.517  0.496E+01  0.492E+01
  10.519  0.558E+01  0.553E+01
  10.521  0.254E+01  0.252E+01
  10.523  0.300E+00  0.297E+00
  10.525  0.136E+01  0.135E+01
  10.527  0.290E+01  0.287E+01
  10.529  0.427E+01  0.423E+01
  10.531  0.792E+01  0.785E+01
  10.533  0.750E+01  0.744E+01
  10.535  0.402E+01  0.399E+01
  10.537  0.372E+01  0.369E+01
  10.539  0.279E+01  0.277E+01
  10.541  0.267E+01  0.265E+01
  10.543  0.219E+01  0.217E+01
  10.545  0.468E+01  0.463E+01
  10.547  0.410E+01  0.405E+01
  10.549  0.585E+01  0.579E+01
  10.551  0.809E+01  0.802E+01
  10.553  0.745E+01  0.739E+01
  10.555  0.793E+01  0.786E+01
  10.557  0.529E+01  0.524E+01
  10.559  0.319E+01  0.315E+01
  10.561  0.416E+01  0.412E+01
  10.563  0.692E+01  0.686E+01
  10.565  0.582E+01  0.577E+01
  10.567  0.355E+01  0.352E+01
  10.569  0.479E+01  0.475E+01
  10.571  0.921E+01  0.914E+01
  10.573  0.756E+01  0.751E+01
  10.575  0.688E+01  0.682E+01
  10.577  0.349E+01  0.346E+01
  10.579  0.494E+01  0.488E+01
  10.581  0.278E+01  0.275E+01
  10.583  0.251E+01  0.249E+01
  10.585  0.881E+00  0.873E+00
  10.587  0.436E-01  0.431E-01
  10.589  0.132E-01  0.130E-01
  10.591  0.630E+00  0.624E+00
  10.593  0.464E+01  0.460E+01
  10.595  0.727E+01  0.721E+01
  10.597  0.701E+01  0.695E+01
  10.599  0.539E+01  0.534E+01
  10.601  0.536E+01  0.531E+01
  10.603  0.474E+01  0.470E+01
  10.605  0.752E+01  0.744E+01
  10.607  0.121E+02  0.120E+02
  10.609  0.119E+02  0.118E+02
  10.611  0.703E+01  0.695E+01
  10.613  0.329E+01  0.325E+01
  10.615  0.502E+01  0.496E+01
  10.617  0.661E+01  0.654E+01
  10.619  0.368E+01  0.365E+01
  10.621  0.467E+01  0.463E+01
  10.623  0.507E+01  0.502E+01
  10.625  0.893E+01  0.884E+01
  10.627  0.870E+01  0.861E+01
  10.629  0.798E+01  0.790E+01
  10.631  0.951E+01  0.943E+01
  10.633  0.646E+01  0.640E+01
  10.635  0.179E+01  0.177E+01
  10.637  0.196E+01  0.194E+01
  10.639  0.504E+01  0.499E+01
  10.641  0.591E+01  0.585E+01
  10.643  0.538E+01  0.534E+01
  10.645  0.102E+02  0.101E+02
  10.647  0.112E+02  0.111E+02
  10.649  0.669E+01  0.664E+01
  10.651  0.558E+01  0.553E+01
  10.653  0.930E+01  0.920E+01
  10.655  0.676E+01  0.669E+01
  10.657  0.342E+01  0.338E+01
  10.659  0.410E+01  0.406E+01
  10.661  0.237E+01  0.235E+01
  10.663  0.247E+01  0.244E+01
  10.665  0.732E+00  0.724E+00
  10.667  0.217E+00  0.215E+00
  10.669  0.180E+01  0.178E+01
  10.671  0.346E+01  0.343E+01
  10.673  0.259E+01  0.257E+01
  10.675  0.627E+00  0.621E+00
  10.677  0.265E+01  0.261E+01
  10.679  0.103E+02  0.102E+02
  10.681  0.994E+01  0.982E+01
  10.683  0.247E+01  0.244E+01
  10.685  0.120E+00  0.119E+00
  10.687  0.113E-01  0.113E-01
  10.689  0.551E+00  0.547E+00
  10.691  0.423E+01  0.420E+01
  10.693  0.696E+01  0.690E+01
  10.695  0.493E+01  0.488E+01
  10.697  0.521E+01  0.515E+01
  10.699  0.941E+01  0.932E+01
  10.701  0.821E+01  0.812E+01
  10.703  0.159E+02  0.157E+02
  10.705  0.168E+02  0.166E+02
  10.707  0.878E+01  0.868E+01
  10.709  0.391E+01  0.387E+01
  10.711  0.473E+01  0.467E+01
  10.713  0.675E+01  0.667E+01
  10.715  0.333E+01  0.329E+01
  10.717  0.395E+01  0.392E+01
  10.719  0.301E+01  0.299E+01
  10.721  0.379E+01  0.374E+01
  10.723  0.697E+01  0.689E+01
  10.725  0.519E+01  0.513E+01
  10.727  0.764E+01  0.755E+01
  10.729  0.566E+01  0.561E+01
  10.731  0.393E+01  0.390E+01
  10.733  0.471E+01  0.467E+01
  10.735  0.629E+01  0.622E+01
  10.737  0.489E+01  0.482E+01
  10.739  0.453E+01  0.448E+01
  10.741  0.285E+01  0.282E+01
  10.743  0.260E+01  0.258E+01
  10.745  0.156E+01  0.154E+01
  10.747  0.279E+01  0.275E+01
  10.749  0.341E+01  0.335E+01
  10.751  0.382E+01  0.377E+01
  10.753  0.763E+01  0.755E+01
  10.755  0.744E+01  0.737E+01
  10.757  0.666E+01  0.659E+01
  10.759  0.696E+01  0.688E+01
  10.761  0.310E+01  0.307E+01
  10.763  0.685E+00  0.678E+00
  10.765  0.493E+01  0.488E+01
  10.767  0.118E+02  0.116E+02
  10.769  0.743E+01  0.737E+01
  10.771  0.277E+01  0.273E+01
  10.773  0.284E+01  0.280E+01
  10.775  0.277E+01  0.273E+01
  10.777  0.130E+01  0.128E+01
  10.779  0.162E+01  0.159E+01
  10.781  0.503E+01  0.496E+01
  10.783  0.917E+01  0.908E+01
  10.785  0.778E+01  0.771E+01
  10.787  0.209E+01  0.207E+01
  10.789  0.262E+01  0.260E+01
  10.791  0.641E+01  0.636E+01
  10.793  0.673E+01  0.665E+01
  10.795  0.845E+01  0.834E+01
  10.797  0.512E+01  0.506E+01
  10.799  0.355E+01  0.351E+01
  10.801  0.681E+01  0.673E+01
  10.803  0.293E+01  0.290E+01
  10.805  0.230E+01  0.227E+01
  10.807  0.661E+01  0.653E+01
  10.809  0.854E+01  0.845E+01
  10.811  0.669E+01  0.663E+01
  10.813  0.375E+01  0.371E+01
  10.815  0.562E+01  0.556E+01
  10.817  0.424E+01  0.420E+01
  10.819  0.365E+01  0.360E+01
  10.821  0.437E+01  0.430E+01
  10.823  0.144E+01  0.142E+01
  10.825  0.259E+01  0.257E+01
  10.827  0.542E+01  0.537E+01
  10.829  0.512E+01  0.506E+01
  10.831  0.325E+01  0.322E+01
  10.833  0.579E+00  0.573E+00
  10.835  0.109E+01  0.107E+01
  10.837  0.412E+01  0.406E+01
  10.839  0.517E+01  0.510E+01
  10.841  0.729E+01  0.720E+01
  10.843  0.599E+01  0.593E+01
  10.845  0.223E+01  0.221E+01
  10.847  0.263E+01  0.259E+01
  10.849  0.368E+01  0.363E+01
  10.851  0.272E+01  0.269E+01
  10.853  0.259E+01  0.257E+01
  10.855  0.996E+00  0.986E+00
  10.857  0.164E+01  0.163E+01
  10.859  0.394E+01  0.390E+01
  10.861  0.541E+01  0.535E+01
  10.863  0.101E+02  0.995E+01
  10.865  0.995E+01  0.983E+01
  10.867  0.482E+01  0.477E+01
  10.869  0.232E+01  0.230E+01
  10.871  0.197E+01  0.194E+01
  10.873  0.573E+01  0.565E+01
  10.875  0.493E+01  0.487E+01
  10.877  0.292E+01  0.287E+01
  10.879  0.331E+01  0.325E+01
  10.881  0.729E+01  0.720E+01
  10.883  0.861E+01  0.850E+01
  10.885  0.386E+01  0.381E+01
  10.887  0.222E+01  0.220E+01
  10.889  0.198E+01  0.196E+01
  10.891  0.166E+01  0.164E+01
  10.893  0.225E+01  0.223E+01
  10.895  0.658E+00  0.652E+00
  10.897  0.215E+01  0.212E+01
  10.899  0.464E+01  0.459E+01
  10.901  0.463E+01  0.457E+01
  10.903  0.789E+01  0.780E+01
  10.905  0.765E+01  0.757E+01
  10.907  0.349E+01  0.345E+01
  10.909  0.567E+01  0.558E+01
  10.911  0.681E+01  0.670E+01
  10.913  0.719E+01  0.711E+01
  10.915  0.779E+01  0.771E+01
  10.917  0.375E+01  0.371E+01
  10.919  0.292E+01  0.290E+01
  10.921  0.546E+01  0.540E+01
  10.923  0.646E+01  0.639E+01
  10.925  0.506E+01  0.501E+01
  10.927  0.575E+01  0.569E+01
  10.929  0.217E+01  0.214E+01
  10.931  0.103E+01  0.102E+01
  10.933  0.530E+01  0.525E+01
  10.935  0.723E+01  0.714E+01
  10.937  0.324E+01  0.320E+01
  10.939  0.405E+00  0.399E+00
  10.941  0.131E+00  0.129E+00
  10.943  0.245E+01  0.240E+01
  10.945  0.762E+01  0.747E+01
  10.947  0.691E+01  0.682E+01
  10.949  0.728E+01  0.720E+01
  10.951  0.649E+01  0.639E+01
  10.953  0.355E+01  0.350E+01
  10.955  0.406E+01  0.401E+01
  10.957  0.628E+01  0.620E+01
  10.959  0.580E+01  0.574E+01
  10.961  0.452E+01  0.447E+01
  10.963  0.487E+01  0.481E+01
  10.965  0.364E+01  0.360E+01
  10.967  0.279E+01  0.275E+01
  10.969  0.212E+01  0.209E+01
  10.971  0.305E+01  0.302E+01
  10.973  0.620E+01  0.614E+01
  10.975  0.585E+01  0.579E+01
  10.977  0.770E+01  0.761E+01
  10.979  0.713E+01  0.704E+01
  10.981  0.881E+01  0.868E+01
  10.983  0.705E+01  0.694E+01
  10.985  0.114E+01  0.112E+01
  10.987  0.174E+01  0.171E+01
  10.989  0.761E+01  0.751E+01
  10.991  0.671E+01  0.663E+01
  10.993  0.174E+01  0.171E+01
  10.995  0.501E+01  0.493E+01
  10.997  0.739E+01  0.730E+01
  10.999  0.590E+01  0.582E+01
  11.001  0.571E+01  0.562E+01
  11.003  0.535E+01  0.529E+01
  11.005  0.414E+01  0.410E+01
  11.007  0.376E+01  0.370E+01
  11.009  0.687E+01  0.678E+01
  11.011  0.549E+01  0.542E+01
  11.013  0.874E+00  0.862E+00
  11.015  0.103E+00  0.102E+00
  11.017  0.122E+01  0.120E+01
  11.019  0.323E+01  0.318E+01
  11.021  0.371E+01  0.365E+01
  11.023  0.408E+01  0.402E+01
  11.025  0.662E+01  0.652E+01
  11.027  0.598E+01  0.589E+01
  11.029  0.411E+01  0.405E+01
  11.031  0.887E+01  0.876E+01
  11.033  0.560E+01  0.554E+01
  11.035  0.319E+01  0.316E+01
  11.037  0.282E+01  0.279E+01
  11.039  0.177E+01  0.174E+01
  11.041  0.174E+01  0.170E+01
  11.043  0.242E+01  0.237E+01
  11.045  0.234E+01  0.230E+01
  11.047  0.183E+01  0.181E+01
  11.049  0.712E+00  0.705E+00
  11.051  0.225E+01  0.223E+01
  11.053  0.149E+01  0.147E+01
  11.055  0.155E+01  0.154E+01
  11.057  0.449E+01  0.443E+01
  11.059  0.425E+01  0.418E+01
  11.061  0.520E+01  0.512E+01
  11.063  0.603E+01  0.594E+01
  11.065  0.349E+01  0.343E+01
  11.067  0.181E+01  0.179E+01
  11.069  0.449E+01  0.444E+01
  11.071  0.428E+01  0.424E+01
  11.073  0.382E+01  0.378E+01
  11.075  0.564E+01  0.557E+01
  11.077  0.741E+01  0.733E+01
  11.079  0.636E+01  0.630E+01
  11.081  0.541E+01  0.533E+01
  11.083  0.411E+01  0.405E+01
  11.085  0.263E+01  0.260E+01
  11.087  0.224E+01  0.221E+01
  11.089  0.587E+01  0.580E+01
  11.091  0.109E+02  0.108E+02
  11.093  0.715E+01  0.705E+01
  11.095  0.149E+01  0.147E+01
  11.097  0.209E+01  0.207E+01
  11.099  0.209E+01  0.206E+01
  11.101  0.238E+01  0.233E+01
  11.103  0.270E+01  0.264E+01
  11.105  0.478E+01  0.467E+01
  11.107  0.257E+01  0.251E+01
  11.109  0.769E+00  0.758E+00
  11.111  0.237E+01  0.234E+01
  11.113  0.258E+01  0.254E+01
  11.115  0.616E+01  0.605E+01
  11.117  0.629E+01  0.618E+01
  11.119  0.290E+01  0.287E+01
  11.121  0.476E+00  0.472E+00
  11.123  0.531E+00  0.519E+00
  11.125  0.365E+01  0.358E+01
  11.127  0.812E+01  0.798E+01
  11.129  0.820E+01  0.804E+01
  11.131  0.772E+01  0.756E+01
  11.133  0.105E+02  0.104E+02
  11.135  0.682E+01  0.672E+01
  11.137  0.155E+01  0.153E+01
  11.139  0.258E+01  0.254E+01
  11.141  0.799E+01  0.784E+01
  11.143  0.112E+02  0.110E+02
  11.145  0.985E+01  0.971E+01
  11.147  0.590E+01  0.583E+01
  11.149  0.433E+01  0.426E+01
  11.151  0.433E+01  0.425E+01
  11.153  0.208E+01  0.204E+01
  11.155  0.589E+01  0.577E+01
  11.157  0.968E+01  0.951E+01
  11.159  0.738E+01  0.728E+01
  11.161  0.196E+01  0.193E+01
  11.163  0.250E+01  0.248E+01
  11.165  0.254E+01  0.252E+01
  11.167  0.236E+01  0.234E+01
  11.169  0.875E+00  0.861E+00
  11.171  0.210E+01  0.205E+01
  11.173  0.164E+01  0.160E+01
  11.175  0.261E+00  0.255E+00
  11.177  0.150E+01  0.147E+01
  11.179  0.548E+01  0.536E+01
  11.181  0.748E+01  0.734E+01
  11.183  0.654E+01  0.645E+01
  11.185  0.549E+01  0.540E+01
  11.187  0.467E+01  0.461E+01
  11.189  0.453E+01  0.447E+01
  11.191  0.389E+01  0.382E+01
  11.193  0.276E+01  0.271E+01
  11.195  0.344E+01  0.338E+01
  11.197  0.750E+01  0.735E+01
  11.199  0.554E+01  0.545E+01
  11.201  0.349E+01  0.344E+01
  11.203  0.236E+01  0.233E+01
  11.205  0.463E+01  0.455E+01
  11.207  0.586E+01  0.578E+01
  11.209  0.330E+01  0.327E+01
  11.211  0.389E+01  0.386E+01
  11.213  0.327E+01  0.324E+01
  11.215  0.278E+01  0.275E+01
  11.217  0.119E+01  0.117E+01
  11.219  0.344E+00  0.341E+00
  11.221  0.292E+01  0.289E+01
  11.223  0.441E+01  0.437E+01
  11.225  0.921E+00  0.913E+00
  11.227  0.264E-01  0.262E-01
  11.229  0.120E-03  0.119E-03
  11.231  0.621E-02  0.613E-02
  11.233  0.372E+00  0.367E+00
  11.235  0.359E+01  0.354E+01
  11.237  0.756E+01  0.744E+01
  11.239  0.481E+01  0.474E+01
  11.241  0.833E+00  0.820E+00
  11.243  0.195E+01  0.190E+01
  11.245  0.492E+01  0.481E+01
  11.247  0.336E+01  0.330E+01
  11.249  0.498E+01  0.491E+01
  11.251  0.575E+01  0.566E+01
  11.253  0.626E+01  0.615E+01
  11.255  0.658E+01  0.648E+01
  11.257  0.392E+01  0.388E+01
  11.259  0.194E+01  0.192E+01
  11.261  0.236E+01  0.233E+01
  11.263  0.600E+00  0.594E+00
  11.265  0.209E-01  0.206E-01
  11.267  0.627E-02  0.613E-02
  11.269  0.319E+00  0.312E+00
  11.271  0.258E+01  0.253E+01
  11.273  0.411E+01  0.404E+01
  11.275  0.144E+01  0.142E+01
  11.277  0.906E-01  0.894E-01
  11.279  0.704E-02  0.698E-02
  11.281  0.302E+00  0.300E+00
  11.283  0.208E+01  0.206E+01
  11.285  0.311E+01  0.308E+01
  11.287  0.347E+01  0.343E+01
  11.289  0.477E+01  0.470E+01
  11.291  0.502E+01  0.491E+01
  11.293  0.267E+01  0.261E+01
  11.295  0.305E+01  0.301E+01
  11.297  0.520E+01  0.513E+01
  11.299  0.579E+01  0.571E+01
  11.301  0.537E+01  0.530E+01
  11.303  0.379E+01  0.374E+01
  11.305  0.299E+01  0.295E+01
  11.307  0.436E+01  0.428E+01
  11.309  0.999E+01  0.978E+01
  11.311  0.901E+01  0.879E+01
  11.313  0.468E+01  0.459E+01
  11.315  0.945E+01  0.928E+01
  11.317  0.434E+01  0.425E+01
  11.319  0.289E+00  0.283E+00
  11.321  0.276E-02  0.269E-02
  11.323  0.373E-05  0.364E-05
  11.325  0.716E-05  0.697E-05
  11.327  0.362E-02  0.352E-02
  11.329  0.262E+00  0.255E+00
  11.331  0.292E+01  0.284E+01
  11.333  0.601E+01  0.587E+01
  11.335  0.338E+01  0.333E+01
  11.337  0.302E+01  0.297E+01
  11.339  0.667E+01  0.656E+01
  11.341  0.320E+01  0.314E+01
  11.343  0.150E+01  0.147E+01
  11.345  0.418E+01  0.413E+01
  11.347  0.421E+01  0.416E+01
  11.349  0.443E+01  0.436E+01
  11.351  0.672E+01  0.661E+01
  11.353  0.431E+01  0.424E+01
  11.355  0.237E+01  0.234E+01
  11.357  0.588E+01  0.581E+01
  11.359  0.752E+01  0.738E+01
  11.361  0.624E+01  0.610E+01
  11.363  0.475E+01  0.468E+01
  11.365  0.365E+01  0.362E+01
  11.367  0.331E+01  0.327E+01
  11.369  0.356E+01  0.348E+01
  11.371  0.151E+01  0.147E+01
  11.373  0.122E+00  0.119E+00
  11.375  0.494E-01  0.488E-01
  11.377  0.925E+00  0.914E+00
  11.379  0.243E+01  0.240E+01
  11.381  0.138E+01  0.136E+01
  11.383  0.276E+01  0.273E+01
  11.385  0.458E+01  0.453E+01
  11.387  0.570E+01  0.562E+01
  11.389  0.313E+01  0.307E+01
  11.391  0.422E+00  0.412E+00
  11.393  0.149E+00  0.147E+00
  11.395  0.264E+01  0.259E+01
  11.397  0.899E+01  0.880E+01
  11.399  0.859E+01  0.842E+01
  11.401  0.675E+01  0.666E+01
  11.403  0.293E+01  0.289E+01
  11.405  0.346E+01  0.341E+01
  11.407  0.417E+01  0.411E+01
  11.409  0.868E+00  0.855E+00
  11.411  0.130E+01  0.128E+01
  11.413  0.235E+01  0.231E+01
  11.415  0.131E+01  0.129E+01
  11.417  0.252E+01  0.248E+01
  11.419  0.246E+01  0.242E+01
  11.421  0.335E+01  0.331E+01
  11.423  0.292E+01  0.288E+01
  11.425  0.100E+01  0.991E+00
  11.427  0.298E+01  0.294E+01
  11.429  0.799E+01  0.786E+01
  11.431  0.560E+01  0.550E+01
  11.433  0.304E+01  0.301E+01
  11.435  0.361E+01  0.355E+01
  11.437  0.214E+01  0.209E+01
  11.439  0.179E+01  0.175E+01
  11.441  0.391E+01  0.383E+01
  11.443  0.624E+01  0.610E+01
  11.445  0.490E+01  0.478E+01
  11.447  0.352E+01  0.346E+01
  11.449  0.339E+01  0.334E+01
  11.451  0.186E+01  0.183E+01
  11.453  0.120E+01  0.118E+01
  11.455  0.245E+01  0.243E+01
  11.457  0.173E+01  0.171E+01
  11.459  0.247E+01  0.244E+01
  11.461  0.147E+01  0.145E+01
  11.463  0.240E+01  0.236E+01
  11.465  0.139E+01  0.137E+01
  11.467  0.310E+01  0.305E+01
  11.469  0.684E+01  0.673E+01
  11.471  0.257E+01  0.253E+01
  11.473  0.151E+00  0.148E+00
  11.475  0.839E-01  0.826E-01
  11.477  0.205E+01  0.202E+01
  11.479  0.732E+01  0.722E+01
  11.481  0.544E+01  0.535E+01
  11.483  0.398E+01  0.392E+01
  11.485  0.606E+01  0.598E+01
  11.487  0.434E+01  0.428E+01
  11.489  0.321E+01  0.315E+01
  11.491  0.508E+01  0.497E+01
  11.493  0.575E+01  0.564E+01
  11.495  0.663E+01  0.650E+01
  11.497  0.228E+01  0.224E+01
  11.499  0.551E+01  0.543E+01
  11.501  0.769E+01  0.757E+01
  11.503  0.727E+01  0.718E+01
  11.505  0.381E+01  0.377E+01
  11.507  0.746E+00  0.737E+00
  11.509  0.205E+01  0.202E+01
  11.511  0.170E+01  0.167E+01
  11.513  0.191E+00  0.188E+00
  11.515  0.510E-01  0.500E-01
  11.517  0.937E+00  0.918E+00
  11.519  0.287E+01  0.281E+01
  11.521  0.375E+01  0.368E+01
  11.523  0.566E+01  0.556E+01
  11.525  0.951E+01  0.936E+01
  11.527  0.875E+01  0.863E+01
  11.529  0.435E+01  0.429E+01
  11.531  0.224E+01  0.221E+01
  11.533  0.342E+00  0.337E+00
  11.535  0.499E+00  0.492E+00
  11.537  0.268E+01  0.264E+01
  11.539  0.365E+01  0.358E+01
  11.541  0.234E+01  0.231E+01
  11.543  0.256E+01  0.253E+01
  11.545  0.196E+01  0.194E+01
  11.547  0.507E+01  0.498E+01
  11.549  0.610E+01  0.596E+01
  11.551  0.451E+01  0.439E+01
  11.553  0.392E+01  0.384E+01
  11.555  0.318E+01  0.314E+01
  11.557  0.179E+01  0.177E+01
  11.559  0.476E+00  0.470E+00
  11.561  0.242E+01  0.238E+01
  11.563  0.596E+01  0.583E+01
  11.565  0.658E+01  0.644E+01
  11.567  0.222E+01  0.217E+01
  11.569  0.270E+01  0.266E+01
  11.571  0.444E+01  0.439E+01
  11.573  0.623E+01  0.615E+01
  11.575  0.725E+01  0.714E+01
  11.577  0.436E+01  0.428E+01
  11.579  0.341E+01  0.336E+01
  11.581  0.689E+01  0.678E+01
  11.583  0.710E+01  0.697E+01
  11.585  0.648E+01  0.634E+01
  11.587  0.489E+01  0.480E+01
  11.589  0.168E+01  0.166E+01
  11.591  0.297E+01  0.293E+01
  11.593  0.513E+01  0.505E+01
  11.595  0.349E+01  0.342E+01
  11.597  0.129E+01  0.127E+01
  11.599  0.211E+01  0.208E+01
  11.601  0.170E+01  0.167E+01
  11.603  0.117E+01  0.115E+01
  11.605  0.513E+01  0.502E+01
  11.607  0.632E+01  0.617E+01
  11.609  0.448E+01  0.436E+01
  11.611  0.562E+01  0.548E+01
  11.613  0.829E+01  0.811E+01
  11.615  0.489E+01  0.481E+01
  11.617  0.243E+01  0.240E+01
  11.619  0.155E+01  0.152E+01
  11.621  0.252E+01  0.248E+01
  11.623  0.336E+01  0.330E+01
  11.625  0.899E+01  0.883E+01
  11.627  0.722E+01  0.709E+01
