# E (eV)   ldos(E)   pdos(E)_1   pdos(E)_2   
   7.605  0.191E-04  0.954E-05  0.954E-05
   7.607  0.120E-02  0.598E-03  0.598E-03
   7.609  0.107E-01  0.533E-02  0.533E-02
   7.611  0.182E-01  0.910E-02  0.910E-02
   7.613  0.148E-01  0.742E-02  0.742E-02
   7.615  0.605E-02  0.302E-02  0.302E-02
   7.617  0.615E-03  0.308E-03  0.308E-03
   7.619  0.198E-02  0.989E-03  0.989E-03
   7.621  0.684E-02  0.342E-02  0.342E-02
   7.623  0.321E-02  0.161E-02  0.161E-02
   7.625  0.204E-03  0.102E-03  0.102E-03
   7.627  0.176E-05  0.878E-06  0.878E-06
   7.629  0.204E-08  0.102E-08  0.102E-08
   7.631  0.322E-12  0.161E-12  0.161E-12
   7.633  0.691E-17  0.346E-17  0.346E-17
   7.635  0.523E-14  0.261E-14  0.261E-14
   7.637  0.749E-10  0.374E-10  0.374E-10
   7.639  0.147E-06  0.733E-07  0.733E-07
   7.641  0.400E-04  0.200E-04  0.200E-04
   7.643  0.158E-02  0.789E-03  0.789E-03
   7.645  0.975E-02  0.488E-02  0.488E-02
   7.647  0.103E-01  0.513E-02  0.513E-02
   7.649  0.194E-02  0.971E-03  0.971E-03
   7.651  0.205E-02  0.102E-02  0.102E-02
   7.653  0.605E-02  0.302E-02  0.302E-02
   7.655  0.252E-02  0.126E-02  0.126E-02
   7.657  0.196E-02  0.978E-03  0.978E-03
   7.659  0.123E-01  0.614E-02  0.614E-02
   7.661  0.112E-01  0.561E-02  0.561E-02
   7.663  0.144E-02  0.721E-03  0.721E-03
   7.665  0.216E-02  0.108E-02  0.108E-02
   7.667  0.117E-01  0.584E-02  0.584E-02
   7.669  0.862E-02  0.431E-02  0.431E-02
   7.671  0.861E-03  0.430E-03  0.430E-03
   7.673  0.346E-04  0.173E-04  0.173E-04
   7.675  0.119E-02  0.595E-03  0.595E-03
   7.677  0.865E-02  0.432E-02  0.432E-02
   7.679  0.883E-02  0.441E-02  0.441E-02
   7.681  0.191E-02  0.957E-03  0.957E-03
   7.683  0.438E-02  0.219E-02  0.219E-02
   7.685  0.701E-02  0.351E-02  0.351E-02
   7.687  0.190E-01  0.949E-02  0.949E-02
   7.689  0.145E-01  0.723E-02  0.723E-02
   7.691  0.152E-02  0.762E-03  0.762E-03
   7.693  0.218E-04  0.109E-04  0.109E-04
   7.695  0.421E-07  0.210E-07  0.210E-07
   7.697  0.110E-10  0.550E-11  0.550E-11
   7.699  0.283E-11  0.142E-11  0.142E-11
   7.701  0.120E-07  0.602E-08  0.602E-08
   7.703  0.694E-05  0.347E-05  0.347E-05
   7.705  0.545E-03  0.273E-03  0.273E-03
   7.707  0.582E-02  0.291E-02  0.291E-02
   7.709  0.851E-02  0.425E-02  0.425E-02
   7.711  0.304E-02  0.152E-02  0.152E-02
   7.713  0.437E-02  0.218E-02  0.218E-02
   7.715  0.184E-02  0.920E-03  0.920E-03
   7.717  0.106E-03  0.530E-04  0.530E-04
   7.719  0.826E-06  0.413E-06  0.413E-06
   7.721  0.936E-09  0.468E-09  0.468E-09
   7.723  0.168E-06  0.840E-07  0.840E-07
   7.725  0.600E-04  0.300E-04  0.300E-04
   7.727  0.300E-02  0.150E-02  0.150E-02
   7.729  0.210E-01  0.105E-01  0.105E-01
   7.731  0.208E-01  0.104E-01  0.104E-01
   7.733  0.318E-02  0.159E-02  0.159E-02
   7.735  0.579E-02  0.289E-02  0.289E-02
   7.737  0.391E-01  0.196E-01  0.196E-01
   7.739  0.997E-01  0.499E-01  0.499E-01
   7.741  0.147E+00  0.734E-01  0.734E-01
   7.743  0.191E+00  0.956E-01  0.956E-01
   7.745  0.162E+00  0.808E-01  0.808E-01
   7.747  0.744E-01  0.372E-01  0.372E-01
   7.749  0.419E-01  0.209E-01  0.209E-01
   7.751  0.409E-01  0.204E-01  0.204E-01
   7.753  0.204E-01  0.102E-01  0.102E-01
   7.755  0.195E-01  0.974E-02  0.974E-02
   7.757  0.224E-01  0.112E-01  0.112E-01
   7.759  0.368E-01  0.184E-01  0.184E-01
   7.761  0.369E-01  0.185E-01  0.185E-01
   7.763  0.111E-01  0.556E-02  0.556E-02
   7.765  0.117E-01  0.586E-02  0.586E-02
   7.767  0.243E-01  0.122E-01  0.122E-01
   7.769  0.116E-01  0.582E-02  0.582E-02
   7.771  0.206E-01  0.103E-01  0.103E-01
   7.773  0.349E-01  0.175E-01  0.175E-01
   7.775  0.172E-01  0.860E-02  0.860E-02
   7.777  0.195E-02  0.973E-03  0.973E-03
   7.779  0.580E-02  0.290E-02  0.290E-02
   7.781  0.218E-01  0.109E-01  0.109E-01
   7.783  0.121E-01  0.604E-02  0.604E-02
   7.785  0.115E-01  0.574E-02  0.574E-02
   7.787  0.265E-01  0.133E-01  0.133E-01
   7.789  0.122E-01  0.608E-02  0.608E-02
   7.791  0.117E-01  0.586E-02  0.586E-02
   7.793  0.216E-01  0.108E-01  0.108E-01
   7.795  0.265E-01  0.133E-01  0.133E-01
   7.797  0.378E-01  0.189E-01  0.189E-01
   7.799  0.269E-01  0.135E-01  0.135E-01
   7.801  0.719E-02  0.359E-02  0.359E-02
   7.803  0.120E-01  0.600E-02  0.600E-02
   7.805  0.358E-01  0.179E-01  0.179E-01
   7.807  0.200E-01  0.998E-02  0.998E-02
   7.809  0.241E-02  0.121E-02  0.121E-02
   7.811  0.125E-03  0.626E-04  0.626E-04
   7.813  0.205E-02  0.103E-02  0.103E-02
   7.815  0.152E-01  0.760E-02  0.760E-02
   7.817  0.200E-01  0.100E-01  0.100E-01
   7.819  0.231E-01  0.116E-01  0.116E-01
   7.821  0.129E-01  0.645E-02  0.645E-02
   7.823  0.389E-02  0.195E-02  0.195E-02
   7.825  0.744E-02  0.372E-02  0.372E-02
   7.827  0.212E-01  0.106E-01  0.106E-01
   7.829  0.971E-02  0.485E-02  0.485E-02
   7.831  0.607E-03  0.304E-03  0.304E-03
   7.833  0.131E-03  0.653E-04  0.653E-04
   7.835  0.111E-02  0.554E-03  0.554E-03
   7.837  0.142E-02  0.708E-03  0.708E-03
   7.839  0.536E-03  0.268E-03  0.268E-03
   7.841  0.830E-02  0.415E-02  0.415E-02
   7.843  0.366E-01  0.183E-01  0.183E-01
   7.845  0.243E-01  0.121E-01  0.121E-01
   7.847  0.279E-02  0.139E-02  0.139E-02
   7.849  0.225E-02  0.112E-02  0.112E-02
   7.851  0.163E-01  0.815E-02  0.815E-02
   7.853  0.167E-01  0.833E-02  0.833E-02
   7.855  0.231E-02  0.115E-02  0.115E-02
   7.857  0.433E-04  0.217E-04  0.217E-04
   7.859  0.196E-06  0.978E-07  0.978E-07
   7.861  0.302E-04  0.151E-04  0.151E-04
   7.863  0.145E-02  0.723E-03  0.723E-03
   7.865  0.939E-02  0.469E-02  0.469E-02
   7.867  0.963E-02  0.481E-02  0.481E-02
   7.869  0.151E-01  0.756E-02  0.756E-02
   7.871  0.192E-01  0.960E-02  0.960E-02
   7.873  0.605E-02  0.302E-02  0.302E-02
   7.875  0.150E-01  0.750E-02  0.750E-02
   7.877  0.142E-01  0.712E-02  0.712E-02
   7.879  0.185E-01  0.925E-02  0.925E-02
   7.881  0.217E-01  0.109E-01  0.109E-01
   7.883  0.144E-01  0.718E-02  0.718E-02
   7.885  0.328E-02  0.164E-02  0.164E-02
   7.887  0.114E-03  0.571E-04  0.571E-04
   7.889  0.543E-06  0.271E-06  0.271E-06
   7.891  0.354E-09  0.177E-09  0.177E-09
   7.893  0.210E-07  0.105E-07  0.105E-07
   7.895  0.131E-04  0.657E-05  0.657E-05
   7.897  0.111E-02  0.556E-03  0.556E-03
   7.899  0.127E-01  0.637E-02  0.637E-02
   7.901  0.198E-01  0.989E-02  0.989E-02
   7.903  0.485E-02  0.242E-02  0.242E-02
   7.905  0.960E-02  0.480E-02  0.480E-02
   7.907  0.182E-01  0.909E-02  0.909E-02
   7.909  0.186E-01  0.930E-02  0.930E-02
   7.911  0.358E-01  0.179E-01  0.179E-01
   7.913  0.126E-01  0.631E-02  0.631E-02
   7.915  0.631E-03  0.316E-03  0.316E-03
   7.917  0.445E-05  0.222E-05  0.222E-05
   7.919  0.439E-08  0.220E-08  0.220E-08
   7.921  0.604E-12  0.302E-12  0.302E-12
   7.923  0.109E-13  0.546E-14  0.546E-14
   7.925  0.167E-09  0.836E-10  0.836E-10
   7.927  0.347E-06  0.174E-06  0.174E-06
   7.929  0.976E-04  0.488E-04  0.488E-04
   7.931  0.371E-02  0.186E-02  0.186E-02
   7.933  0.191E-01  0.956E-02  0.956E-02
   7.935  0.135E-01  0.677E-02  0.677E-02
   7.937  0.549E-02  0.274E-02  0.274E-02
   7.939  0.106E-01  0.532E-02  0.532E-02
   7.941  0.459E-02  0.229E-02  0.229E-02
   7.943  0.117E-01  0.583E-02  0.583E-02
   7.945  0.182E-01  0.910E-02  0.910E-02
   7.947  0.700E-02  0.350E-02  0.350E-02
   7.949  0.142E-01  0.708E-02  0.708E-02
   7.951  0.850E-02  0.425E-02  0.425E-02
   7.953  0.696E-03  0.348E-03  0.348E-03
   7.955  0.772E-05  0.386E-05  0.386E-05
   7.957  0.140E-06  0.701E-07  0.701E-07
   7.959  0.421E-04  0.210E-04  0.210E-04
   7.961  0.199E-02  0.993E-03  0.993E-03
   7.963  0.158E-01  0.792E-02  0.792E-02
   7.965  0.315E-01  0.158E-01  0.158E-01
   7.967  0.311E-01  0.156E-01  0.156E-01
   7.969  0.388E-01  0.194E-01  0.194E-01
   7.971  0.253E-01  0.126E-01  0.126E-01
   7.973  0.879E-02  0.440E-02  0.440E-02
   7.975  0.175E-01  0.877E-02  0.877E-02
   7.977  0.925E-02  0.462E-02  0.462E-02
   7.979  0.212E-01  0.106E-01  0.106E-01
   7.981  0.297E-01  0.148E-01  0.148E-01
   7.983  0.742E-02  0.371E-02  0.371E-02
   7.985  0.448E-03  0.224E-03  0.224E-03
   7.987  0.532E-02  0.266E-02  0.266E-02
   7.989  0.271E-01  0.135E-01  0.135E-01
   7.991  0.208E-01  0.104E-01  0.104E-01
   7.993  0.519E-02  0.259E-02  0.259E-02
   7.995  0.135E-01  0.677E-02  0.677E-02
   7.997  0.884E-02  0.442E-02  0.442E-02
   7.999  0.782E-03  0.391E-03  0.391E-03
   8.001  0.937E-05  0.469E-05  0.469E-05
   8.003  0.208E-05  0.104E-05  0.104E-05
   8.005  0.357E-03  0.179E-03  0.179E-03
   8.007  0.899E-02  0.450E-02  0.450E-02
   8.009  0.348E-01  0.174E-01  0.174E-01
   8.011  0.221E-01  0.111E-01  0.111E-01
   8.013  0.858E-02  0.429E-02  0.429E-02
   8.015  0.224E-01  0.112E-01  0.112E-01
   8.017  0.327E-01  0.164E-01  0.164E-01
   8.019  0.256E-01  0.128E-01  0.128E-01
   8.021  0.141E-01  0.704E-02  0.704E-02
   8.023  0.165E-02  0.823E-03  0.823E-03
   8.025  0.271E-04  0.136E-04  0.136E-04
   8.027  0.117E-04  0.584E-05  0.584E-05
   8.029  0.845E-03  0.422E-03  0.422E-03
   8.031  0.834E-02  0.417E-02  0.417E-02
   8.033  0.123E-01  0.613E-02  0.613E-02
   8.035  0.136E-01  0.679E-02  0.679E-02
   8.037  0.155E-01  0.777E-02  0.777E-02
   8.039  0.527E-02  0.263E-02  0.263E-02
   8.041  0.120E-01  0.601E-02  0.601E-02
   8.043  0.787E-02  0.393E-02  0.393E-02
   8.045  0.382E-02  0.191E-02  0.191E-02
   8.047  0.112E-01  0.558E-02  0.558E-02
   8.049  0.107E-01  0.536E-02  0.536E-02
   8.051  0.204E-01  0.102E-01  0.102E-01
   8.053  0.987E-02  0.493E-02  0.493E-02
   8.055  0.656E-03  0.328E-03  0.328E-03
   8.057  0.178E-03  0.889E-04  0.889E-04
   8.059  0.466E-02  0.233E-02  0.233E-02
   8.061  0.171E-01  0.854E-02  0.854E-02
   8.063  0.851E-02  0.425E-02  0.425E-02
   8.065  0.243E-02  0.121E-02  0.121E-02
   8.067  0.140E-01  0.700E-02  0.700E-02
   8.069  0.198E-01  0.989E-02  0.989E-02
   8.071  0.133E-01  0.665E-02  0.665E-02
   8.073  0.559E-02  0.280E-02  0.280E-02
   8.075  0.111E-01  0.557E-02  0.557E-02
   8.077  0.582E-02  0.291E-02  0.291E-02
   8.079  0.415E-03  0.207E-03  0.207E-03
   8.081  0.400E-05  0.200E-05  0.200E-05
   8.083  0.524E-08  0.262E-08  0.262E-08
   8.085  0.279E-07  0.140E-07  0.140E-07
   8.087  0.128E-04  0.640E-05  0.640E-05
   8.089  0.796E-03  0.398E-03  0.398E-03
   8.091  0.670E-02  0.335E-02  0.335E-02
   8.093  0.861E-02  0.431E-02  0.431E-02
   8.095  0.130E-01  0.649E-02  0.649E-02
   8.097  0.189E-01  0.947E-02  0.947E-02
   8.099  0.453E-02  0.227E-02  0.227E-02
   8.101  0.707E-02  0.354E-02  0.354E-02
   8.103  0.271E-01  0.136E-01  0.136E-01
   8.105  0.348E-01  0.174E-01  0.174E-01
   8.107  0.890E-02  0.445E-02  0.445E-02
   8.109  0.341E-03  0.170E-03  0.170E-03
   8.111  0.185E-05  0.926E-06  0.926E-06
   8.113  0.435E-05  0.218E-05  0.218E-05
   8.115  0.421E-03  0.211E-03  0.211E-03
   8.117  0.551E-02  0.276E-02  0.276E-02
   8.119  0.977E-02  0.488E-02  0.488E-02
   8.121  0.234E-02  0.117E-02  0.117E-02
   8.123  0.167E-03  0.835E-04  0.835E-04
   8.125  0.302E-02  0.151E-02  0.151E-02
   8.127  0.135E-01  0.676E-02  0.676E-02
   8.129  0.886E-02  0.443E-02  0.443E-02
   8.131  0.729E-02  0.365E-02  0.365E-02
   8.133  0.928E-02  0.464E-02  0.464E-02
   8.135  0.577E-02  0.289E-02  0.289E-02
   8.137  0.100E-01  0.500E-02  0.500E-02
   8.139  0.438E-02  0.219E-02  0.219E-02
   8.141  0.137E-01  0.686E-02  0.686E-02
   8.143  0.486E-01  0.243E-01  0.243E-01
   8.145  0.575E-01  0.288E-01  0.288E-01
   8.147  0.247E-01  0.123E-01  0.123E-01
   8.149  0.362E-01  0.181E-01  0.181E-01
   8.151  0.247E-01  0.123E-01  0.123E-01
   8.153  0.380E-02  0.190E-02  0.190E-02
   8.155  0.588E-02  0.294E-02  0.294E-02
   8.157  0.236E-01  0.118E-01  0.118E-01
   8.159  0.187E-01  0.936E-02  0.936E-02
   8.161  0.108E-01  0.538E-02  0.538E-02
   8.163  0.395E-02  0.198E-02  0.198E-02
   8.165  0.578E-03  0.289E-03  0.289E-03
   8.167  0.677E-02  0.339E-02  0.339E-02
   8.169  0.259E-01  0.129E-01  0.129E-01
   8.171  0.293E-01  0.146E-01  0.146E-01
   8.173  0.136E-01  0.678E-02  0.678E-02
   8.175  0.209E-02  0.105E-02  0.105E-02
   8.177  0.594E-04  0.297E-04  0.297E-04
   8.179  0.275E-04  0.138E-04  0.138E-04
   8.181  0.145E-02  0.724E-03  0.724E-03
   8.183  0.116E-01  0.580E-02  0.580E-02
   8.185  0.210E-01  0.105E-01  0.105E-01
   8.187  0.164E-01  0.821E-02  0.821E-02
   8.189  0.164E-01  0.820E-02  0.820E-02
   8.191  0.670E-02  0.335E-02  0.335E-02
   8.193  0.308E-02  0.154E-02  0.154E-02
   8.195  0.192E-01  0.961E-02  0.961E-02
   8.197  0.276E-01  0.138E-01  0.138E-01
   8.199  0.119E-01  0.597E-02  0.597E-02
   8.201  0.131E-01  0.655E-02  0.655E-02
   8.203  0.228E-01  0.114E-01  0.114E-01
   8.205  0.183E-01  0.916E-02  0.916E-02
   8.207  0.108E-01  0.542E-02  0.542E-02
   8.209  0.794E-02  0.397E-02  0.397E-02
   8.211  0.179E-02  0.894E-03  0.894E-03
   8.213  0.722E-04  0.361E-04  0.361E-04
   8.215  0.877E-03  0.438E-03  0.438E-03
   8.217  0.692E-02  0.346E-02  0.346E-02
   8.219  0.740E-02  0.370E-02  0.370E-02
   8.221  0.178E-02  0.892E-03  0.892E-03
   8.223  0.760E-02  0.380E-02  0.380E-02
   8.225  0.120E-01  0.602E-02  0.602E-02
   8.227  0.125E-01  0.626E-02  0.626E-02
   8.229  0.120E-01  0.598E-02  0.598E-02
   8.231  0.192E-02  0.960E-03  0.960E-03
   8.233  0.364E-02  0.182E-02  0.182E-02
   8.235  0.222E-01  0.111E-01  0.111E-01
   8.237  0.190E-01  0.952E-02  0.952E-02
   8.239  0.372E-02  0.186E-02  0.186E-02
   8.241  0.719E-02  0.359E-02  0.359E-02
   8.243  0.103E-01  0.513E-02  0.513E-02
   8.245  0.157E-01  0.787E-02  0.787E-02
   8.247  0.168E-01  0.842E-02  0.842E-02
   8.249  0.320E-01  0.160E-01  0.160E-01
   8.251  0.305E-01  0.153E-01  0.153E-01
   8.253  0.111E-01  0.557E-02  0.557E-02
   8.255  0.144E-01  0.718E-02  0.718E-02
   8.257  0.404E-02  0.202E-02  0.202E-02
   8.259  0.155E-03  0.775E-04  0.775E-04
   8.261  0.805E-06  0.402E-06  0.402E-06
   8.263  0.565E-09  0.283E-09  0.283E-09
   8.265  0.537E-13  0.269E-13  0.269E-13
   8.267  0.175E-14  0.876E-15  0.876E-15
   8.269  0.370E-10  0.185E-10  0.185E-10
   8.271  0.108E-06  0.538E-07  0.538E-07
   8.273  0.430E-04  0.215E-04  0.215E-04
   8.275  0.236E-02  0.118E-02  0.118E-02
   8.277  0.178E-01  0.889E-02  0.889E-02
   8.279  0.184E-01  0.918E-02  0.918E-02
   8.281  0.313E-02  0.156E-02  0.156E-02
   8.283  0.104E-01  0.519E-02  0.519E-02
   8.285  0.276E-01  0.138E-01  0.138E-01
   8.287  0.102E-01  0.508E-02  0.508E-02
   8.289  0.514E-03  0.257E-03  0.257E-03
   8.291  0.549E-04  0.275E-04  0.275E-04
   8.293  0.206E-02  0.103E-02  0.103E-02
   8.295  0.112E-01  0.560E-02  0.560E-02
   8.297  0.824E-02  0.412E-02  0.412E-02
   8.299  0.871E-03  0.436E-03  0.436E-03
   8.301  0.171E-02  0.856E-03  0.856E-03
   8.303  0.776E-02  0.388E-02  0.388E-02
   8.305  0.860E-02  0.430E-02  0.430E-02
   8.307  0.210E-01  0.105E-01  0.105E-01
   8.309  0.274E-01  0.137E-01  0.137E-01
   8.311  0.169E-01  0.843E-02  0.843E-02
   8.313  0.272E-02  0.136E-02  0.136E-02
   8.315  0.214E-03  0.107E-03  0.107E-03
   8.317  0.375E-02  0.187E-02  0.187E-02
   8.319  0.143E-01  0.717E-02  0.717E-02
   8.321  0.743E-02  0.372E-02  0.372E-02
   8.323  0.521E-03  0.261E-03  0.261E-03
   8.325  0.718E-04  0.359E-04  0.359E-04
   8.327  0.183E-02  0.913E-03  0.913E-03
   8.329  0.675E-02  0.338E-02  0.338E-02
   8.331  0.359E-02  0.180E-02  0.180E-02
   8.333  0.457E-02  0.228E-02  0.228E-02
   8.335  0.121E-01  0.606E-02  0.606E-02
   8.337  0.828E-02  0.414E-02  0.414E-02
   8.339  0.155E-01  0.773E-02  0.773E-02
   8.341  0.136E-01  0.679E-02  0.679E-02
   8.343  0.105E-01  0.524E-02  0.524E-02
   8.345  0.190E-01  0.948E-02  0.948E-02
   8.347  0.923E-02  0.462E-02  0.462E-02
   8.349  0.836E-03  0.418E-03  0.418E-03
   8.351  0.117E-04  0.587E-05  0.587E-05
   8.353  0.887E-04  0.443E-04  0.443E-04
   8.355  0.302E-02  0.151E-02  0.151E-02
   8.357  0.139E-01  0.694E-02  0.694E-02
   8.359  0.868E-02  0.434E-02  0.434E-02
   8.361  0.158E-02  0.788E-03  0.788E-03
   8.363  0.502E-02  0.251E-02  0.251E-02
   8.365  0.746E-02  0.373E-02  0.373E-02
   8.367  0.150E-01  0.752E-02  0.752E-02
   8.369  0.162E-01  0.809E-02  0.809E-02
   8.371  0.259E-02  0.130E-02  0.130E-02
   8.373  0.564E-04  0.282E-04  0.282E-04
   8.375  0.514E-06  0.257E-06  0.257E-06
   8.377  0.767E-04  0.383E-04  0.383E-04
   8.379  0.229E-02  0.115E-02  0.115E-02
   8.381  0.950E-02  0.475E-02  0.475E-02
   8.383  0.947E-02  0.474E-02  0.474E-02
   8.385  0.172E-01  0.862E-02  0.862E-02
   8.387  0.162E-01  0.808E-02  0.808E-02
   8.389  0.484E-02  0.242E-02  0.242E-02
   8.391  0.362E-03  0.181E-03  0.181E-03
   8.393  0.145E-02  0.723E-03  0.723E-03
   8.395  0.876E-02  0.438E-02  0.438E-02
   8.397  0.937E-02  0.469E-02  0.469E-02
   8.399  0.155E-01  0.773E-02  0.773E-02
   8.401  0.159E-01  0.793E-02  0.793E-02
   8.403  0.379E-02  0.189E-02  0.189E-02
   8.405  0.221E-02  0.110E-02  0.110E-02
   8.407  0.607E-02  0.304E-02  0.304E-02
   8.409  0.262E-02  0.131E-02  0.131E-02
   8.411  0.237E-02  0.118E-02  0.118E-02
   8.413  0.513E-02  0.256E-02  0.256E-02
   8.415  0.166E-02  0.830E-03  0.830E-03
   8.417  0.101E-02  0.504E-03  0.504E-03
   8.419  0.876E-02  0.438E-02  0.438E-02
   8.421  0.160E-01  0.800E-02  0.800E-02
   8.423  0.906E-02  0.453E-02  0.453E-02
   8.425  0.262E-02  0.131E-02  0.131E-02
   8.427  0.238E-02  0.119E-02  0.119E-02
   8.429  0.309E-02  0.155E-02  0.155E-02
   8.431  0.140E-01  0.702E-02  0.702E-02
   8.433  0.179E-01  0.895E-02  0.895E-02
   8.435  0.112E-01  0.561E-02  0.561E-02
   8.437  0.121E-01  0.603E-02  0.603E-02
   8.439  0.954E-02  0.477E-02  0.477E-02
   8.441  0.299E-02  0.149E-02  0.149E-02
   8.443  0.580E-02  0.290E-02  0.290E-02
   8.445  0.207E-01  0.103E-01  0.103E-01
   8.447  0.174E-01  0.872E-02  0.872E-02
   8.449  0.251E-02  0.125E-02  0.125E-02
   8.451  0.618E-04  0.309E-04  0.309E-04
   8.453  0.350E-03  0.175E-03  0.175E-03
   8.455  0.213E-02  0.106E-02  0.106E-02
   8.457  0.180E-02  0.898E-03  0.898E-03
   8.459  0.177E-02  0.885E-03  0.885E-03
   8.461  0.739E-02  0.369E-02  0.369E-02
   8.463  0.469E-02  0.234E-02  0.234E-02
   8.465  0.619E-03  0.309E-03  0.309E-03
   8.467  0.313E-02  0.157E-02  0.157E-02
   8.469  0.713E-02  0.356E-02  0.356E-02
   8.471  0.391E-02  0.195E-02  0.195E-02
   8.473  0.626E-03  0.313E-03  0.313E-03
   8.475  0.186E-04  0.932E-05  0.932E-05
   8.477  0.214E-05  0.107E-05  0.107E-05
   8.479  0.205E-03  0.103E-03  0.103E-03
   8.481  0.291E-02  0.145E-02  0.145E-02
   8.483  0.104E-01  0.520E-02  0.520E-02
   8.485  0.310E-01  0.155E-01  0.155E-01
   8.487  0.335E-01  0.168E-01  0.168E-01
   8.489  0.223E-01  0.112E-01  0.112E-01
   8.491  0.174E-01  0.869E-02  0.869E-02
   8.493  0.152E-01  0.759E-02  0.759E-02
   8.495  0.234E-01  0.117E-01  0.117E-01
   8.497  0.327E-01  0.163E-01  0.163E-01
   8.499  0.279E-01  0.140E-01  0.140E-01
   8.501  0.204E-01  0.102E-01  0.102E-01
   8.503  0.160E-01  0.798E-02  0.798E-02
   8.505  0.143E-01  0.717E-02  0.717E-02
   8.507  0.100E-01  0.500E-02  0.500E-02
   8.509  0.571E-02  0.286E-02  0.286E-02
   8.511  0.839E-02  0.419E-02  0.419E-02
   8.513  0.328E-02  0.164E-02  0.164E-02
   8.515  0.395E-02  0.197E-02  0.197E-02
   8.517  0.119E-01  0.595E-02  0.595E-02
   8.519  0.594E-02  0.297E-02  0.297E-02
   8.521  0.642E-02  0.321E-02  0.321E-02
   8.523  0.570E-02  0.285E-02  0.285E-02
   8.525  0.777E-03  0.388E-03  0.388E-03
   8.527  0.185E-02  0.924E-03  0.924E-03
   8.529  0.111E-01  0.555E-02  0.555E-02
   8.531  0.204E-01  0.102E-01  0.102E-01
   8.533  0.176E-01  0.879E-02  0.879E-02
   8.535  0.142E-01  0.710E-02  0.710E-02
   8.537  0.224E-01  0.112E-01  0.112E-01
   8.539  0.263E-01  0.132E-01  0.132E-01
   8.541  0.179E-01  0.894E-02  0.894E-02
   8.543  0.147E-01  0.736E-02  0.736E-02
   8.545  0.215E-01  0.108E-01  0.108E-01
   8.547  0.263E-01  0.131E-01  0.131E-01
   8.549  0.221E-01  0.110E-01  0.110E-01
   8.551  0.204E-01  0.102E-01  0.102E-01
   8.553  0.216E-01  0.108E-01  0.108E-01
   8.555  0.124E-01  0.620E-02  0.620E-02
   8.557  0.112E-01  0.558E-02  0.558E-02
   8.559  0.506E-02  0.253E-02  0.253E-02
   8.561  0.528E-02  0.264E-02  0.264E-02
   8.563  0.954E-02  0.477E-02  0.477E-02
   8.565  0.126E-01  0.632E-02  0.632E-02
   8.567  0.187E-01  0.934E-02  0.934E-02
   8.569  0.185E-01  0.925E-02  0.925E-02
   8.571  0.200E-01  0.100E-01  0.100E-01
   8.573  0.935E-02  0.468E-02  0.468E-02
   8.575  0.626E-02  0.313E-02  0.313E-02
   8.577  0.967E-02  0.484E-02  0.484E-02
   8.579  0.116E-01  0.580E-02  0.580E-02
   8.581  0.560E-02  0.280E-02  0.280E-02
   8.583  0.127E-01  0.633E-02  0.633E-02
   8.585  0.160E-01  0.800E-02  0.800E-02
   8.587  0.831E-02  0.416E-02  0.416E-02
   8.589  0.128E-01  0.641E-02  0.641E-02
   8.591  0.780E-02  0.390E-02  0.390E-02
   8.593  0.485E-02  0.243E-02  0.243E-02
   8.595  0.858E-02  0.429E-02  0.429E-02
   8.597  0.717E-02  0.358E-02  0.358E-02
   8.599  0.265E-02  0.133E-02  0.133E-02
   8.601  0.234E-02  0.117E-02  0.117E-02
   8.603  0.238E-02  0.119E-02  0.119E-02
   8.605  0.445E-03  0.223E-03  0.223E-03
   8.607  0.222E-02  0.111E-02  0.111E-02
   8.609  0.116E-01  0.580E-02  0.580E-02
   8.611  0.317E-01  0.159E-01  0.159E-01
   8.613  0.416E-01  0.208E-01  0.208E-01
   8.615  0.266E-01  0.133E-01  0.133E-01
   8.617  0.128E-01  0.641E-02  0.641E-02
   8.619  0.102E-01  0.512E-02  0.512E-02
   8.621  0.139E-01  0.696E-02  0.696E-02
   8.623  0.164E-01  0.820E-02  0.820E-02
   8.625  0.716E-02  0.358E-02  0.358E-02
   8.627  0.542E-02  0.271E-02  0.271E-02
   8.629  0.910E-02  0.455E-02  0.455E-02
   8.631  0.628E-02  0.314E-02  0.314E-02
   8.633  0.306E-02  0.153E-02  0.153E-02
   8.635  0.143E-02  0.715E-03  0.715E-03
   8.637  0.463E-02  0.231E-02  0.231E-02
   8.639  0.855E-02  0.427E-02  0.427E-02
   8.641  0.162E-01  0.810E-02  0.810E-02
   8.643  0.206E-01  0.103E-01  0.103E-01
   8.645  0.275E-01  0.138E-01  0.138E-01
   8.647  0.167E-01  0.837E-02  0.837E-02
   8.649  0.494E-02  0.247E-02  0.247E-02
   8.651  0.833E-03  0.416E-03  0.416E-03
   8.653  0.315E-02  0.157E-02  0.157E-02
   8.655  0.787E-02  0.393E-02  0.393E-02
   8.657  0.120E-01  0.600E-02  0.600E-02
   8.659  0.778E-02  0.389E-02  0.389E-02
   8.661  0.549E-02  0.274E-02  0.274E-02
   8.663  0.290E-02  0.145E-02  0.145E-02
   8.665  0.385E-03  0.193E-03  0.193E-03
   8.667  0.191E-02  0.955E-03  0.955E-03
   8.669  0.740E-02  0.370E-02  0.370E-02
   8.671  0.157E-01  0.785E-02  0.785E-02
   8.673  0.115E-01  0.574E-02  0.574E-02
   8.675  0.139E-01  0.694E-02  0.694E-02
   8.677  0.232E-01  0.116E-01  0.116E-01
   8.679  0.114E-01  0.568E-02  0.568E-02
   8.681  0.881E-02  0.440E-02  0.440E-02
   8.683  0.119E-01  0.594E-02  0.594E-02
   8.685  0.619E-02  0.310E-02  0.310E-02
   8.687  0.114E-02  0.569E-03  0.569E-03
   8.689  0.187E-02  0.933E-03  0.933E-03
   8.691  0.268E-02  0.134E-02  0.134E-02
   8.693  0.147E-02  0.736E-03  0.736E-03
   8.695  0.205E-02  0.102E-02  0.102E-02
   8.697  0.363E-02  0.182E-02  0.182E-02
   8.699  0.422E-02  0.211E-02  0.211E-02
   8.701  0.499E-02  0.250E-02  0.250E-02
   8.703  0.131E-01  0.654E-02  0.654E-02
   8.705  0.162E-01  0.811E-02  0.811E-02
   8.707  0.357E-02  0.179E-02  0.179E-02
   8.709  0.119E-02  0.595E-03  0.595E-03
   8.711  0.120E-02  0.601E-03  0.601E-03
   8.713  0.855E-03  0.427E-03  0.427E-03
   8.715  0.365E-02  0.183E-02  0.183E-02
   8.717  0.540E-02  0.270E-02  0.270E-02
   8.719  0.403E-02  0.202E-02  0.202E-02
   8.721  0.954E-02  0.477E-02  0.477E-02
   8.723  0.208E-01  0.104E-01  0.104E-01
   8.725  0.131E-01  0.653E-02  0.653E-02
   8.727  0.402E-02  0.201E-02  0.201E-02
   8.729  0.515E-03  0.258E-03  0.258E-03
   8.731  0.748E-03  0.374E-03  0.374E-03
   8.733  0.283E-02  0.141E-02  0.141E-02
   8.735  0.152E-02  0.761E-03  0.761E-03
   8.737  0.243E-02  0.121E-02  0.121E-02
   8.739  0.142E-01  0.710E-02  0.710E-02
   8.741  0.121E-01  0.605E-02  0.605E-02
   8.743  0.190E-02  0.952E-03  0.952E-03
   8.745  0.707E-02  0.353E-02  0.353E-02
   8.747  0.148E-01  0.741E-02  0.741E-02
   8.749  0.536E-02  0.268E-02  0.268E-02
   8.751  0.437E-02  0.219E-02  0.219E-02
   8.753  0.396E-02  0.198E-02  0.198E-02
   8.755  0.161E-02  0.807E-03  0.807E-03
   8.757  0.669E-03  0.334E-03  0.334E-03
   8.759  0.609E-03  0.304E-03  0.304E-03
   8.761  0.357E-02  0.178E-02  0.178E-02
   8.763  0.485E-02  0.243E-02  0.243E-02
   8.765  0.271E-02  0.136E-02  0.136E-02
   8.767  0.381E-03  0.190E-03  0.190E-03
   8.769  0.240E-04  0.120E-04  0.120E-04
   8.771  0.562E-03  0.281E-03  0.281E-03
   8.773  0.276E-02  0.138E-02  0.138E-02
   8.775  0.527E-02  0.264E-02  0.264E-02
   8.777  0.161E-01  0.807E-02  0.807E-02
   8.779  0.982E-02  0.491E-02  0.491E-02
   8.781  0.824E-03  0.412E-03  0.412E-03
   8.783  0.959E-05  0.480E-05  0.480E-05
   8.785  0.299E-04  0.149E-04  0.149E-04
   8.787  0.781E-03  0.391E-03  0.391E-03
   8.789  0.277E-02  0.138E-02  0.138E-02
   8.791  0.133E-02  0.666E-03  0.666E-03
   8.793  0.427E-03  0.213E-03  0.213E-03
   8.795  0.228E-02  0.114E-02  0.114E-02
   8.797  0.207E-02  0.104E-02  0.104E-02
   8.799  0.257E-03  0.129E-03  0.129E-03
   8.801  0.398E-03  0.199E-03  0.199E-03
   8.803  0.842E-02  0.421E-02  0.421E-02
   8.805  0.244E-01  0.122E-01  0.122E-01
   8.807  0.964E-02  0.482E-02  0.482E-02
   8.809  0.517E-03  0.258E-03  0.258E-03
   8.811  0.214E-04  0.107E-04  0.107E-04
   8.813  0.620E-03  0.310E-03  0.310E-03
   8.815  0.460E-02  0.230E-02  0.230E-02
   8.817  0.144E-01  0.719E-02  0.719E-02
   8.819  0.158E-01  0.788E-02  0.788E-02
   8.821  0.169E-01  0.846E-02  0.846E-02
   8.823  0.858E-02  0.429E-02  0.429E-02
   8.825  0.680E-03  0.340E-03  0.340E-03
   8.827  0.741E-05  0.371E-05  0.371E-05
   8.829  0.632E-06  0.316E-06  0.316E-06
   8.831  0.766E-04  0.383E-04  0.383E-04
   8.833  0.128E-02  0.639E-03  0.639E-03
   8.835  0.288E-02  0.144E-02  0.144E-02
   8.837  0.882E-03  0.441E-03  0.441E-03
   8.839  0.132E-03  0.661E-04  0.661E-04
   8.841  0.139E-02  0.694E-03  0.694E-03
   8.843  0.361E-02  0.181E-02  0.181E-02
   8.845  0.314E-02  0.157E-02  0.157E-02
   8.847  0.848E-03  0.424E-03  0.424E-03
   8.849  0.170E-02  0.851E-03  0.851E-03
   8.851  0.457E-02  0.229E-02  0.229E-02
   8.853  0.169E-02  0.846E-03  0.846E-03
   8.855  0.956E-04  0.478E-04  0.478E-04
   8.857  0.856E-03  0.428E-03  0.428E-03
   8.859  0.913E-02  0.457E-02  0.457E-02
   8.861  0.132E-01  0.660E-02  0.660E-02
   8.863  0.285E-02  0.143E-02  0.143E-02
   8.865  0.226E-02  0.113E-02  0.113E-02
   8.867  0.260E-02  0.130E-02  0.130E-02
   8.869  0.281E-02  0.140E-02  0.140E-02
   8.871  0.440E-02  0.220E-02  0.220E-02
   8.873  0.115E-02  0.575E-03  0.575E-03
   8.875  0.436E-04  0.218E-04  0.218E-04
   8.877  0.236E-06  0.118E-06  0.118E-06
   8.879  0.180E-09  0.898E-10  0.898E-10
   8.881  0.758E-11  0.379E-11  0.379E-11
   8.883  0.299E-07  0.149E-07  0.149E-07
   8.885  0.160E-04  0.798E-05  0.798E-05
   8.887  0.116E-02  0.578E-03  0.578E-03
   8.889  0.113E-01  0.566E-02  0.566E-02
   8.891  0.150E-01  0.750E-02  0.750E-02
   8.893  0.271E-02  0.135E-02  0.135E-02
   8.895  0.746E-03  0.373E-03  0.373E-03
   8.897  0.564E-02  0.282E-02  0.282E-02
   8.899  0.147E-01  0.735E-02  0.735E-02
   8.901  0.191E-01  0.956E-02  0.956E-02
   8.903  0.118E-01  0.588E-02  0.588E-02
   8.905  0.151E-01  0.753E-02  0.753E-02
   8.907  0.622E-02  0.311E-02  0.311E-02
   8.909  0.358E-03  0.179E-03  0.179E-03
   8.911  0.279E-05  0.139E-05  0.139E-05
   8.913  0.293E-08  0.147E-08  0.147E-08
   8.915  0.291E-11  0.146E-11  0.146E-11
   8.917  0.766E-08  0.383E-08  0.383E-08
   8.919  0.323E-05  0.162E-05  0.162E-05
   8.921  0.194E-03  0.969E-04  0.969E-04
   8.923  0.181E-02  0.903E-03  0.903E-03
   8.925  0.302E-02  0.151E-02  0.151E-02
   8.927  0.960E-03  0.480E-03  0.480E-03
   8.929  0.636E-04  0.318E-04  0.318E-04
   8.931  0.481E-03  0.240E-03  0.240E-03
   8.933  0.269E-02  0.134E-02  0.134E-02
   8.935  0.204E-02  0.102E-02  0.102E-02
   8.937  0.209E-03  0.104E-03  0.104E-03
   8.939  0.290E-05  0.145E-05  0.145E-05
   8.941  0.547E-08  0.273E-08  0.273E-08
   8.943  0.434E-07  0.217E-07  0.217E-07
   8.945  0.115E-04  0.576E-05  0.576E-05
   8.947  0.544E-03  0.272E-03  0.272E-03
   8.949  0.615E-02  0.308E-02  0.308E-02
   8.951  0.191E-01  0.956E-02  0.956E-02
   8.953  0.132E-01  0.662E-02  0.662E-02
   8.955  0.155E-02  0.773E-03  0.773E-03
   8.957  0.264E-04  0.132E-04  0.132E-04
   8.959  0.623E-07  0.312E-07  0.312E-07
   8.961  0.234E-10  0.117E-10  0.117E-10
   8.963  0.108E-07  0.538E-08  0.538E-08
   8.965  0.477E-05  0.238E-05  0.238E-05
   8.967  0.286E-03  0.143E-03  0.143E-03
   8.969  0.236E-02  0.118E-02  0.118E-02
   8.971  0.312E-02  0.156E-02  0.156E-02
   8.973  0.205E-02  0.102E-02  0.102E-02
   8.975  0.188E-02  0.940E-03  0.940E-03
   8.977  0.104E-01  0.520E-02  0.520E-02
   8.979  0.153E-01  0.764E-02  0.764E-02
   8.981  0.312E-02  0.156E-02  0.156E-02
   8.983  0.208E-02  0.104E-02  0.104E-02
   8.985  0.123E-01  0.615E-02  0.615E-02
   8.987  0.103E-01  0.513E-02  0.513E-02
   8.989  0.119E-02  0.594E-03  0.594E-03
   8.991  0.475E-03  0.238E-03  0.238E-03
   8.993  0.107E-02  0.537E-03  0.537E-03
   8.995  0.416E-03  0.208E-03  0.208E-03
   8.997  0.596E-03  0.298E-03  0.298E-03
   8.999  0.780E-02  0.390E-02  0.390E-02
   9.001  0.147E-01  0.734E-02  0.734E-02
   9.003  0.695E-02  0.347E-02  0.347E-02
   9.005  0.616E-02  0.308E-02  0.308E-02
   9.007  0.402E-02  0.201E-02  0.201E-02
   9.009  0.315E-02  0.157E-02  0.157E-02
   9.011  0.489E-03  0.245E-03  0.245E-03
   9.013  0.116E-04  0.582E-05  0.582E-05
   9.015  0.334E-04  0.167E-04  0.167E-04
   9.017  0.132E-03  0.661E-04  0.661E-04
   9.019  0.713E-04  0.356E-04  0.356E-04
   9.021  0.548E-05  0.274E-05  0.274E-05
   9.023  0.192E-06  0.958E-07  0.958E-07
   9.025  0.109E-06  0.544E-07  0.544E-07
   9.027  0.719E-07  0.360E-07  0.360E-07
   9.029  0.195E-07  0.976E-08  0.976E-08
   9.031  0.952E-07  0.476E-07  0.476E-07
   9.033  0.981E-07  0.491E-07  0.491E-07
   9.035  0.137E-07  0.687E-08  0.687E-08
   9.037  0.345E-08  0.173E-08  0.173E-08
   9.039  0.584E-07  0.292E-07  0.292E-07
   9.041  0.163E-06  0.817E-07  0.817E-07
   9.043  0.731E-05  0.366E-05  0.366E-05
   9.045  0.379E-03  0.190E-03  0.190E-03
   9.047  0.302E-02  0.151E-02  0.151E-02
   9.049  0.903E-02  0.452E-02  0.452E-02
   9.051  0.153E-01  0.765E-02  0.765E-02
   9.053  0.465E-02  0.232E-02  0.232E-02
   9.055  0.196E-03  0.978E-04  0.978E-04
   9.057  0.115E-03  0.577E-04  0.577E-04
   9.059  0.238E-02  0.119E-02  0.119E-02
   9.061  0.672E-02  0.336E-02  0.336E-02
   9.063  0.258E-02  0.129E-02  0.129E-02
   9.065  0.124E-02  0.620E-03  0.620E-03
   9.067  0.109E-01  0.544E-02  0.544E-02
   9.069  0.145E-01  0.725E-02  0.725E-02
   9.071  0.308E-02  0.154E-02  0.154E-02
   9.073  0.704E-02  0.352E-02  0.352E-02
   9.075  0.140E-01  0.701E-02  0.701E-02
   9.077  0.381E-02  0.191E-02  0.191E-02
   9.079  0.140E-03  0.702E-04  0.702E-04
   9.081  0.852E-06  0.426E-06  0.426E-06
   9.083  0.379E-06  0.189E-06  0.189E-06
   9.085  0.274E-04  0.137E-04  0.137E-04
   9.087  0.814E-03  0.407E-03  0.407E-03
   9.089  0.327E-02  0.164E-02  0.164E-02
   9.091  0.178E-02  0.891E-03  0.891E-03
   9.093  0.131E-03  0.657E-04  0.657E-04
   9.095  0.134E-05  0.670E-06  0.670E-06
   9.097  0.152E-04  0.762E-05  0.762E-05
   9.099  0.107E-02  0.537E-03  0.537E-03
   9.101  0.103E-01  0.513E-02  0.513E-02
   9.103  0.132E-01  0.662E-02  0.662E-02
   9.105  0.232E-02  0.116E-02  0.116E-02
   9.107  0.548E-04  0.274E-04  0.274E-04
   9.109  0.175E-06  0.877E-07  0.877E-07
   9.111  0.869E-10  0.434E-10  0.434E-10
   9.113  0.331E-07  0.166E-07  0.166E-07
   9.115  0.137E-04  0.685E-05  0.685E-05
   9.117  0.766E-03  0.383E-03  0.383E-03
   9.119  0.580E-02  0.290E-02  0.290E-02
   9.121  0.595E-02  0.297E-02  0.297E-02
   9.123  0.825E-03  0.412E-03  0.412E-03
   9.125  0.156E-04  0.778E-05  0.778E-05
   9.127  0.207E-05  0.104E-05  0.104E-05
   9.129  0.176E-03  0.880E-04  0.880E-04
   9.131  0.206E-02  0.103E-02  0.103E-02
   9.133  0.328E-02  0.164E-02  0.164E-02
   9.135  0.705E-03  0.353E-03  0.353E-03
   9.137  0.205E-04  0.103E-04  0.103E-04
   9.139  0.808E-07  0.404E-07  0.404E-07
   9.141  0.906E-09  0.453E-09  0.453E-09
   9.143  0.520E-07  0.260E-07  0.260E-07
   9.145  0.424E-06  0.212E-06  0.212E-06
   9.147  0.483E-06  0.242E-06  0.242E-06
   9.149  0.984E-05  0.492E-05  0.492E-05
   9.151  0.817E-03  0.409E-03  0.409E-03
   9.153  0.928E-02  0.464E-02  0.464E-02
   9.155  0.160E-01  0.801E-02  0.801E-02
   9.157  0.159E-01  0.796E-02  0.796E-02
   9.159  0.124E-01  0.618E-02  0.618E-02
   9.161  0.158E-02  0.788E-03  0.788E-03
   9.163  0.443E-03  0.222E-03  0.222E-03
   9.165  0.655E-02  0.328E-02  0.328E-02
   9.167  0.140E-01  0.698E-02  0.698E-02
   9.169  0.403E-02  0.201E-02  0.201E-02
   9.171  0.158E-03  0.791E-04  0.791E-04
   9.173  0.592E-04  0.296E-04  0.296E-04
   9.175  0.125E-02  0.626E-03  0.626E-03
   9.177  0.382E-02  0.191E-02  0.191E-02
   9.179  0.452E-02  0.226E-02  0.226E-02
   9.181  0.861E-02  0.431E-02  0.431E-02
   9.183  0.322E-02  0.161E-02  0.161E-02
   9.185  0.164E-03  0.820E-04  0.820E-04
   9.187  0.113E-05  0.566E-06  0.566E-06
   9.189  0.106E-08  0.529E-09  0.529E-09
   9.191  0.134E-12  0.671E-13  0.671E-13
   9.193  0.176E-11  0.882E-12  0.882E-12
   9.195  0.939E-09  0.469E-09  0.469E-09
   9.197  0.676E-07  0.338E-07  0.338E-07
   9.199  0.664E-06  0.332E-06  0.332E-06
   9.201  0.544E-05  0.272E-05  0.272E-05
   9.203  0.505E-03  0.252E-03  0.252E-03
   9.205  0.753E-02  0.377E-02  0.377E-02
   9.207  0.152E-01  0.762E-02  0.762E-02
   9.209  0.417E-02  0.208E-02  0.208E-02
   9.211  0.154E-03  0.771E-04  0.771E-04
   9.213  0.773E-06  0.386E-06  0.386E-06
   9.215  0.808E-09  0.404E-09  0.404E-09
   9.217  0.346E-06  0.173E-06  0.173E-06
   9.219  0.571E-04  0.285E-04  0.285E-04
   9.221  0.127E-02  0.637E-03  0.637E-03
   9.223  0.385E-02  0.192E-02  0.192E-02
   9.225  0.157E-02  0.786E-03  0.786E-03
   9.227  0.870E-04  0.435E-04  0.435E-04
   9.229  0.125E-05  0.623E-06  0.623E-06
   9.231  0.130E-05  0.652E-06  0.652E-06
   9.233  0.387E-06  0.193E-06  0.193E-06
   9.235  0.171E-07  0.856E-08  0.856E-08
   9.237  0.168E-05  0.838E-06  0.838E-06
   9.239  0.253E-03  0.126E-03  0.126E-03
   9.241  0.588E-02  0.294E-02  0.294E-02
   9.243  0.229E-01  0.114E-01  0.114E-01
   9.245  0.152E-01  0.759E-02  0.759E-02
   9.247  0.161E-02  0.804E-03  0.804E-03
   9.249  0.251E-04  0.125E-04  0.125E-04
   9.251  0.881E-07  0.440E-07  0.440E-07
   9.253  0.171E-04  0.855E-05  0.855E-05
   9.255  0.123E-02  0.616E-03  0.616E-03
   9.257  0.134E-01  0.671E-02  0.671E-02
   9.259  0.265E-01  0.133E-01  0.133E-01
   9.261  0.110E-01  0.548E-02  0.548E-02
   9.263  0.837E-03  0.418E-03  0.418E-03
   9.265  0.141E-04  0.703E-05  0.703E-05
   9.267  0.252E-03  0.126E-03  0.126E-03
   9.269  0.261E-02  0.131E-02  0.131E-02
   9.271  0.367E-02  0.184E-02  0.184E-02
   9.273  0.697E-03  0.349E-03  0.349E-03
   9.275  0.179E-04  0.897E-05  0.897E-05
   9.277  0.624E-07  0.312E-07  0.312E-07
   9.279  0.294E-10  0.147E-10  0.147E-10
   9.281  0.187E-14  0.937E-15  0.937E-15
   9.283  0.162E-19  0.808E-20  0.808E-20
   9.285  0.000E+00  0.000E+00  0.000E+00
   9.287  0.171E-19  0.854E-20  0.854E-20
   9.289  0.572E-15  0.286E-15  0.286E-15
   9.291  0.259E-11  0.130E-11  0.130E-11
   9.293  0.159E-08  0.796E-09  0.796E-09
   9.295  0.132E-06  0.662E-07  0.662E-07
   9.297  0.192E-05  0.958E-06  0.958E-06
   9.299  0.953E-04  0.476E-04  0.476E-04
   9.301  0.272E-02  0.136E-02  0.136E-02
   9.303  0.108E-01  0.542E-02  0.542E-02
   9.305  0.798E-02  0.399E-02  0.399E-02
   9.307  0.140E-01  0.701E-02  0.701E-02
   9.309  0.114E-01  0.570E-02  0.570E-02
   9.311  0.129E-02  0.645E-03  0.645E-03
   9.313  0.226E-04  0.113E-04  0.113E-04
   9.315  0.240E-03  0.120E-03  0.120E-03
   9.317  0.310E-02  0.155E-02  0.155E-02
   9.319  0.113E-01  0.563E-02  0.563E-02
   9.321  0.169E-01  0.847E-02  0.847E-02
   9.323  0.489E-02  0.245E-02  0.245E-02
   9.325  0.199E-03  0.997E-04  0.997E-04
   9.327  0.110E-05  0.552E-06  0.552E-06
   9.329  0.934E-09  0.467E-09  0.467E-09
   9.331  0.247E-07  0.124E-07  0.124E-07
   9.333  0.778E-06  0.389E-06  0.389E-06
   9.335  0.331E-05  0.166E-05  0.166E-05
   9.337  0.191E-05  0.955E-06  0.955E-06
   9.339  0.149E-06  0.746E-07  0.746E-07
   9.341  0.104E-06  0.520E-07  0.520E-07
   9.343  0.367E-04  0.184E-04  0.184E-04
   9.345  0.178E-02  0.892E-03  0.892E-03
   9.347  0.117E-01  0.586E-02  0.586E-02
   9.349  0.105E-01  0.524E-02  0.524E-02
   9.351  0.341E-02  0.171E-02  0.171E-02
   9.353  0.138E-01  0.688E-02  0.688E-02
   9.355  0.126E-01  0.628E-02  0.628E-02
   9.357  0.921E-02  0.460E-02  0.460E-02
   9.359  0.118E-01  0.592E-02  0.592E-02
   9.361  0.242E-02  0.121E-02  0.121E-02
   9.363  0.229E-03  0.115E-03  0.115E-03
   9.365  0.239E-02  0.119E-02  0.119E-02
   9.367  0.475E-02  0.237E-02  0.237E-02
   9.369  0.128E-02  0.639E-03  0.639E-03
   9.371  0.468E-04  0.234E-04  0.234E-04
   9.373  0.305E-05  0.152E-05  0.152E-05
   9.375  0.492E-05  0.246E-05  0.246E-05
   9.377  0.158E-04  0.791E-05  0.791E-05
   9.379  0.109E-02  0.543E-03  0.543E-03
   9.381  0.109E-01  0.543E-02  0.543E-02
   9.383  0.147E-01  0.736E-02  0.736E-02
   9.385  0.270E-02  0.135E-02  0.135E-02
   9.387  0.670E-04  0.335E-04  0.335E-04
   9.389  0.215E-04  0.108E-04  0.108E-04
   9.391  0.137E-02  0.687E-03  0.687E-03
   9.393  0.120E-01  0.600E-02  0.600E-02
   9.395  0.142E-01  0.710E-02  0.710E-02
   9.397  0.228E-02  0.114E-02  0.114E-02
   9.399  0.413E-03  0.207E-03  0.207E-03
   9.401  0.627E-02  0.314E-02  0.314E-02
   9.403  0.146E-01  0.731E-02  0.731E-02
   9.405  0.461E-02  0.231E-02  0.231E-02
   9.407  0.197E-03  0.984E-04  0.984E-04
   9.409  0.198E-04  0.991E-05  0.991E-05
   9.411  0.815E-03  0.407E-03  0.407E-03
   9.413  0.481E-02  0.241E-02  0.241E-02
   9.415  0.388E-02  0.194E-02  0.194E-02
   9.417  0.200E-02  0.100E-02  0.100E-02
   9.419  0.116E-01  0.582E-02  0.582E-02
   9.421  0.129E-01  0.644E-02  0.644E-02
   9.423  0.151E-01  0.754E-02  0.754E-02
   9.425  0.272E-01  0.136E-01  0.136E-01
   9.427  0.166E-01  0.832E-02  0.832E-02
   9.429  0.254E-02  0.127E-02  0.127E-02
   9.431  0.611E-02  0.305E-02  0.305E-02
   9.433  0.163E-01  0.816E-02  0.816E-02
   9.435  0.594E-02  0.297E-02  0.297E-02
   9.437  0.293E-03  0.146E-03  0.146E-03
   9.439  0.196E-05  0.978E-06  0.978E-06
   9.441  0.509E-05  0.255E-05  0.255E-05
   9.443  0.712E-03  0.356E-03  0.356E-03
   9.445  0.137E-01  0.687E-02  0.687E-02
   9.447  0.404E-01  0.202E-01  0.202E-01
   9.449  0.297E-01  0.149E-01  0.149E-01
   9.451  0.146E-01  0.729E-02  0.729E-02
   9.453  0.545E-01  0.273E-01  0.273E-01
   9.455  0.770E-01  0.385E-01  0.385E-01
   9.457  0.595E-01  0.297E-01  0.297E-01
   9.459  0.496E-01  0.248E-01  0.248E-01
   9.461  0.223E-01  0.112E-01  0.112E-01
   9.463  0.213E-01  0.107E-01  0.107E-01
   9.465  0.206E-01  0.103E-01  0.103E-01
   9.467  0.174E-01  0.870E-02  0.870E-02
   9.469  0.172E-01  0.861E-02  0.861E-02
   9.471  0.101E-01  0.505E-02  0.505E-02
   9.473  0.175E-01  0.875E-02  0.875E-02
   9.475  0.691E-02  0.346E-02  0.346E-02
   9.477  0.383E-03  0.191E-03  0.191E-03
   9.479  0.852E-03  0.426E-03  0.426E-03
   9.481  0.960E-02  0.480E-02  0.480E-02
   9.483  0.147E-01  0.737E-02  0.737E-02
   9.485  0.642E-02  0.321E-02  0.321E-02
   9.487  0.219E-01  0.110E-01  0.110E-01
   9.489  0.193E-01  0.964E-02  0.964E-02
   9.491  0.259E-02  0.129E-02  0.129E-02
   9.493  0.530E-02  0.265E-02  0.265E-02
   9.495  0.146E-01  0.732E-02  0.732E-02
   9.497  0.682E-02  0.341E-02  0.341E-02
   9.499  0.100E-01  0.501E-02  0.501E-02
   9.501  0.963E-02  0.482E-02  0.482E-02
   9.503  0.192E-02  0.960E-03  0.960E-03
   9.505  0.860E-02  0.430E-02  0.430E-02
   9.507  0.163E-01  0.815E-02  0.815E-02
   9.509  0.419E-02  0.210E-02  0.210E-02
   9.511  0.146E-03  0.731E-04  0.731E-04
   9.513  0.689E-06  0.345E-06  0.345E-06
   9.515  0.440E-09  0.220E-09  0.220E-09
   9.517  0.380E-13  0.190E-13  0.190E-13
   9.519  0.131E-13  0.656E-14  0.656E-14
   9.521  0.185E-09  0.926E-10  0.926E-10
   9.523  0.354E-06  0.177E-06  0.177E-06
   9.525  0.916E-04  0.458E-04  0.458E-04
   9.527  0.321E-02  0.160E-02  0.160E-02
   9.529  0.152E-01  0.760E-02  0.760E-02
   9.531  0.975E-02  0.488E-02  0.488E-02
   9.533  0.847E-03  0.423E-03  0.423E-03
   9.535  0.994E-05  0.497E-05  0.497E-05
   9.537  0.158E-07  0.790E-08  0.790E-08
   9.539  0.340E-11  0.170E-11  0.170E-11
   9.541  0.283E-13  0.141E-13  0.141E-13
   9.543  0.121E-09  0.604E-10  0.604E-10
   9.545  0.700E-07  0.350E-07  0.350E-07
   9.547  0.549E-05  0.275E-05  0.275E-05
   9.549  0.584E-04  0.292E-04  0.292E-04
   9.551  0.943E-04  0.472E-04  0.472E-04
   9.553  0.883E-03  0.441E-03  0.441E-03
   9.555  0.968E-02  0.484E-02  0.484E-02
   9.557  0.146E-01  0.732E-02  0.732E-02
   9.559  0.300E-02  0.150E-02  0.150E-02
   9.561  0.830E-04  0.415E-04  0.415E-04
   9.563  0.311E-06  0.156E-06  0.156E-06
   9.565  0.158E-09  0.790E-10  0.790E-10
   9.567  0.108E-13  0.542E-14  0.542E-14
   9.569  0.101E-18  0.504E-19  0.504E-19
   9.571  0.000E+00  0.000E+00  0.000E+00
   9.573  0.000E+00  0.000E+00  0.000E+00
   9.575  0.147E-16  0.733E-17  0.733E-17
   9.577  0.691E-12  0.345E-12  0.345E-12
   9.579  0.441E-08  0.220E-08  0.220E-08
   9.581  0.380E-05  0.190E-05  0.190E-05
   9.583  0.444E-03  0.222E-03  0.222E-03
   9.585  0.702E-02  0.351E-02  0.351E-02
   9.587  0.150E-01  0.751E-02  0.751E-02
   9.589  0.435E-02  0.218E-02  0.218E-02
   9.591  0.171E-03  0.854E-04  0.854E-04
   9.593  0.306E-04  0.153E-04  0.153E-04
   9.595  0.575E-03  0.288E-03  0.288E-03
   9.597  0.151E-02  0.753E-03  0.753E-03
   9.599  0.534E-03  0.267E-03  0.267E-03
   9.601  0.256E-04  0.128E-04  0.128E-04
   9.603  0.166E-06  0.830E-07  0.830E-07
   9.605  0.146E-09  0.729E-10  0.729E-10
   9.607  0.173E-13  0.867E-14  0.867E-14
   9.609  0.279E-18  0.139E-18  0.139E-18
   9.611  0.000E+00  0.000E+00  0.000E+00
   9.613  0.839E-19  0.419E-19  0.419E-19
   9.615  0.904E-14  0.452E-14  0.452E-14
   9.617  0.132E-09  0.660E-10  0.660E-10
   9.619  0.260E-06  0.130E-06  0.130E-06
   9.621  0.696E-04  0.348E-04  0.348E-04
   9.623  0.252E-02  0.126E-02  0.126E-02
   9.625  0.123E-01  0.616E-02  0.616E-02
   9.627  0.816E-02  0.408E-02  0.408E-02
   9.629  0.732E-03  0.366E-03  0.366E-03
   9.631  0.888E-05  0.444E-05  0.444E-05
   9.633  0.146E-07  0.729E-08  0.729E-08
   9.635  0.324E-11  0.162E-11  0.162E-11
   9.637  0.975E-16  0.487E-16  0.487E-16
   9.639  0.408E-20  0.204E-20  0.204E-20
   9.641  0.386E-15  0.193E-15  0.193E-15
   9.643  0.512E-11  0.256E-11  0.256E-11
   9.645  0.106E-07  0.532E-08  0.532E-08
   9.647  0.426E-05  0.213E-05  0.213E-05
   9.649  0.365E-03  0.183E-03  0.183E-03
   9.651  0.572E-02  0.286E-02  0.286E-02
   9.653  0.168E-01  0.838E-02  0.838E-02
   9.655  0.177E-01  0.887E-02  0.887E-02
   9.657  0.627E-02  0.313E-02  0.313E-02
   9.659  0.172E-02  0.858E-03  0.858E-03
   9.661  0.107E-01  0.535E-02  0.535E-02
   9.663  0.115E-01  0.573E-02  0.573E-02
   9.665  0.166E-02  0.831E-03  0.831E-03
   9.667  0.327E-04  0.164E-04  0.164E-04
   9.669  0.490E-04  0.245E-04  0.245E-04
   9.671  0.213E-02  0.106E-02  0.106E-02
   9.673  0.132E-01  0.661E-02  0.661E-02
   9.675  0.172E-01  0.861E-02  0.861E-02
   9.677  0.992E-02  0.496E-02  0.496E-02
   9.679  0.145E-02  0.726E-03  0.726E-03
   9.681  0.315E-04  0.158E-04  0.158E-04
   9.683  0.934E-07  0.467E-07  0.467E-07
   9.685  0.375E-10  0.188E-10  0.188E-10
   9.687  0.204E-14  0.102E-14  0.102E-14
   9.689  0.100E-17  0.500E-18  0.500E-18
   9.691  0.720E-13  0.360E-13  0.360E-13
   9.693  0.713E-09  0.357E-09  0.357E-09
   9.695  0.955E-06  0.478E-06  0.478E-06
   9.697  0.173E-03  0.866E-04  0.866E-04
   9.699  0.427E-02  0.214E-02  0.214E-02
   9.701  0.154E-01  0.772E-02  0.772E-02
   9.703  0.167E-01  0.835E-02  0.835E-02
   9.705  0.113E-01  0.567E-02  0.567E-02
   9.707  0.158E-02  0.788E-03  0.788E-03
   9.709  0.306E-04  0.153E-04  0.153E-04
   9.711  0.805E-07  0.403E-07  0.403E-07
   9.713  0.287E-10  0.143E-10  0.143E-10
   9.715  0.778E-13  0.389E-13  0.389E-13
   9.717  0.690E-09  0.345E-09  0.345E-09
   9.719  0.843E-06  0.421E-06  0.421E-06
   9.721  0.139E-03  0.696E-04  0.696E-04
   9.723  0.312E-02  0.156E-02  0.156E-02
   9.725  0.943E-02  0.472E-02  0.472E-02
   9.727  0.386E-02  0.193E-02  0.193E-02
   9.729  0.231E-03  0.115E-03  0.115E-03
   9.731  0.109E-02  0.543E-03  0.543E-03
   9.733  0.976E-02  0.488E-02  0.488E-02
   9.735  0.119E-01  0.594E-02  0.594E-02
   9.737  0.196E-02  0.980E-03  0.980E-03
   9.739  0.437E-04  0.219E-04  0.219E-04
   9.741  0.132E-06  0.661E-07  0.661E-07
   9.743  0.161E-06  0.805E-07  0.805E-07
   9.745  0.492E-04  0.246E-04  0.246E-04
   9.747  0.203E-02  0.102E-02  0.102E-02
   9.749  0.114E-01  0.569E-02  0.569E-02
   9.751  0.862E-02  0.431E-02  0.431E-02
   9.753  0.884E-03  0.442E-03  0.442E-03
   9.755  0.213E-04  0.107E-04  0.107E-04
   9.757  0.172E-04  0.862E-05  0.862E-05
   9.759  0.442E-05  0.221E-05  0.221E-05
   9.761  0.153E-06  0.767E-07  0.767E-07
   9.763  0.112E-08  0.559E-09  0.559E-09
   9.765  0.605E-06  0.302E-06  0.302E-06
   9.767  0.125E-03  0.624E-04  0.624E-04
   9.769  0.349E-02  0.175E-02  0.175E-02
   9.771  0.132E-01  0.660E-02  0.660E-02
   9.773  0.676E-02  0.338E-02  0.338E-02
   9.775  0.548E-03  0.274E-03  0.274E-03
   9.777  0.234E-02  0.117E-02  0.117E-02
   9.779  0.936E-02  0.468E-02  0.468E-02
   9.781  0.507E-02  0.254E-02  0.254E-02
   9.783  0.372E-03  0.186E-03  0.186E-03
   9.785  0.369E-05  0.184E-05  0.184E-05
   9.787  0.256E-06  0.128E-06  0.128E-06
   9.789  0.671E-04  0.335E-04  0.335E-04
   9.791  0.259E-02  0.130E-02  0.130E-02
   9.793  0.151E-01  0.754E-02  0.754E-02
   9.795  0.140E-01  0.702E-02  0.702E-02
   9.797  0.757E-02  0.378E-02  0.378E-02
   9.799  0.121E-01  0.605E-02  0.605E-02
   9.801  0.350E-02  0.175E-02  0.175E-02
   9.803  0.291E-03  0.146E-03  0.146E-03
   9.805  0.327E-02  0.163E-02  0.163E-02
   9.807  0.939E-02  0.470E-02  0.470E-02
   9.809  0.523E-02  0.261E-02  0.261E-02
   9.811  0.109E-01  0.545E-02  0.545E-02
   9.813  0.974E-02  0.487E-02  0.487E-02
   9.815  0.120E-02  0.598E-03  0.598E-03
   9.817  0.199E-04  0.996E-05  0.996E-05
   9.819  0.467E-05  0.234E-05  0.234E-05
   9.821  0.509E-03  0.254E-03  0.254E-03
   9.823  0.756E-02  0.378E-02  0.378E-02
   9.825  0.152E-01  0.762E-02  0.762E-02
   9.827  0.475E-02  0.238E-02  0.238E-02
   9.829  0.716E-02  0.358E-02  0.358E-02
   9.831  0.230E-01  0.115E-01  0.115E-01
   9.833  0.315E-01  0.158E-01  0.158E-01
   9.835  0.833E-02  0.417E-02  0.417E-02
   9.837  0.313E-03  0.157E-03  0.157E-03
   9.839  0.162E-05  0.808E-06  0.808E-06
   9.841  0.114E-08  0.569E-09  0.569E-09
   9.843  0.168E-08  0.839E-09  0.839E-09
   9.845  0.181E-05  0.906E-06  0.906E-06
   9.847  0.280E-03  0.140E-03  0.140E-03
   9.849  0.658E-02  0.329E-02  0.329E-02
   9.851  0.251E-01  0.126E-01  0.126E-01
   9.853  0.184E-01  0.921E-02  0.921E-02
   9.855  0.135E-01  0.674E-02  0.674E-02
   9.857  0.723E-02  0.362E-02  0.362E-02
   9.859  0.113E-02  0.567E-03  0.567E-03
   9.861  0.715E-02  0.357E-02  0.357E-02
   9.863  0.127E-01  0.633E-02  0.633E-02
   9.865  0.304E-02  0.152E-02  0.152E-02
   9.867  0.102E-03  0.509E-04  0.509E-04
   9.869  0.508E-05  0.254E-05  0.254E-05
   9.871  0.898E-05  0.449E-05  0.449E-05
   9.873  0.583E-03  0.292E-03  0.292E-03
   9.875  0.587E-02  0.294E-02  0.294E-02
   9.877  0.129E-01  0.645E-02  0.645E-02
   9.879  0.273E-01  0.137E-01  0.137E-01
   9.881  0.237E-01  0.118E-01  0.118E-01
   9.883  0.490E-02  0.245E-02  0.245E-02
   9.885  0.206E-03  0.103E-03  0.103E-03
   9.887  0.138E-05  0.691E-06  0.691E-06
   9.889  0.132E-08  0.660E-09  0.660E-09
   9.891  0.176E-12  0.878E-13  0.878E-13
   9.893  0.413E-10  0.206E-10  0.206E-10
   9.895  0.104E-06  0.520E-07  0.520E-07
   9.897  0.355E-04  0.178E-04  0.178E-04
   9.899  0.164E-02  0.821E-03  0.821E-03
   9.901  0.103E-01  0.514E-02  0.514E-02
   9.903  0.978E-02  0.489E-02  0.489E-02
   9.905  0.923E-02  0.462E-02  0.462E-02
   9.907  0.838E-02  0.419E-02  0.419E-02
   9.909  0.135E-02  0.677E-03  0.677E-03
   9.911  0.495E-02  0.247E-02  0.247E-02
   9.913  0.161E-01  0.805E-02  0.805E-02
   9.915  0.959E-02  0.479E-02  0.479E-02
   9.917  0.113E-01  0.567E-02  0.567E-02
   9.919  0.636E-02  0.318E-02  0.318E-02
   9.921  0.664E-03  0.332E-03  0.332E-03
   9.923  0.310E-02  0.155E-02  0.155E-02
   9.925  0.792E-02  0.396E-02  0.396E-02
   9.927  0.274E-02  0.137E-02  0.137E-02
   9.929  0.128E-03  0.642E-04  0.642E-04
   9.931  0.815E-06  0.408E-06  0.408E-06
   9.933  0.703E-09  0.352E-09  0.352E-09
   9.935  0.828E-13  0.414E-13  0.414E-13
   9.937  0.134E-17  0.671E-18  0.671E-18
   9.939  0.163E-16  0.813E-17  0.813E-17
   9.941  0.720E-12  0.360E-12  0.360E-12
   9.943  0.432E-08  0.216E-08  0.216E-08
   9.945  0.353E-05  0.176E-05  0.176E-05
   9.947  0.398E-03  0.199E-03  0.199E-03
   9.949  0.676E-02  0.338E-02  0.338E-02
   9.951  0.219E-01  0.110E-01  0.110E-01
   9.953  0.172E-01  0.858E-02  0.858E-02
   9.955  0.267E-02  0.134E-02  0.134E-02
   9.957  0.637E-04  0.319E-04  0.319E-04
   9.959  0.398E-04  0.199E-04  0.199E-04
   9.961  0.159E-02  0.797E-03  0.797E-03
   9.963  0.870E-02  0.435E-02  0.435E-02
   9.965  0.643E-02  0.321E-02  0.321E-02
   9.967  0.643E-03  0.321E-03  0.321E-03
   9.969  0.659E-04  0.329E-04  0.329E-04
   9.971  0.172E-02  0.859E-03  0.859E-03
   9.973  0.699E-02  0.349E-02  0.349E-02
   9.975  0.386E-02  0.193E-02  0.193E-02
   9.977  0.125E-02  0.627E-03  0.627E-03
   9.979  0.750E-02  0.375E-02  0.375E-02
   9.981  0.123E-01  0.617E-02  0.617E-02
   9.983  0.527E-02  0.263E-02  0.263E-02
   9.985  0.428E-03  0.214E-03  0.214E-03
   9.987  0.515E-05  0.257E-05  0.257E-05
   9.989  0.143E-05  0.715E-06  0.715E-06
   9.991  0.216E-03  0.108E-03  0.108E-03
   9.993  0.511E-02  0.255E-02  0.255E-02
   9.995  0.209E-01  0.104E-01  0.104E-01
   9.997  0.151E-01  0.757E-02  0.757E-02
   9.999  0.312E-02  0.156E-02  0.156E-02
  10.001  0.917E-02  0.459E-02  0.459E-02
  10.003  0.841E-02  0.421E-02  0.421E-02
  10.005  0.105E-02  0.524E-03  0.524E-03
  10.007  0.176E-04  0.882E-05  0.882E-05
  10.009  0.402E-07  0.201E-07  0.201E-07
  10.011  0.130E-10  0.648E-11  0.648E-11
  10.013  0.302E-08  0.151E-08  0.151E-08
  10.015  0.232E-05  0.116E-05  0.116E-05
  10.017  0.242E-03  0.121E-03  0.121E-03
  10.019  0.345E-02  0.172E-02  0.172E-02
  10.021  0.803E-02  0.401E-02  0.401E-02
  10.023  0.974E-02  0.487E-02  0.487E-02
  10.025  0.577E-02  0.289E-02  0.289E-02
  10.027  0.549E-03  0.274E-03  0.274E-03
  10.029  0.712E-05  0.356E-05  0.356E-05
  10.031  0.153E-07  0.764E-08  0.764E-08
  10.033  0.116E-06  0.582E-07  0.582E-07
  10.035  0.667E-06  0.333E-06  0.333E-06
  10.037  0.144E-05  0.720E-06  0.720E-06
  10.039  0.111E-03  0.553E-04  0.553E-04
  10.041  0.292E-02  0.146E-02  0.146E-02
  10.043  0.152E-01  0.762E-02  0.762E-02
  10.045  0.126E-01  0.629E-02  0.629E-02
  10.047  0.243E-02  0.121E-02  0.121E-02
  10.049  0.136E-02  0.681E-03  0.681E-03
  10.051  0.707E-03  0.354E-03  0.354E-03
  10.053  0.401E-02  0.200E-02  0.200E-02
  10.055  0.120E-01  0.599E-02  0.599E-02
  10.057  0.570E-02  0.285E-02  0.285E-02
  10.059  0.476E-03  0.238E-03  0.238E-03
  10.061  0.268E-03  0.134E-03  0.134E-03
  10.063  0.266E-02  0.133E-02  0.133E-02
  10.065  0.712E-02  0.356E-02  0.356E-02
  10.067  0.676E-02  0.338E-02  0.338E-02
  10.069  0.146E-02  0.732E-03  0.732E-03
  10.071  0.473E-04  0.236E-04  0.236E-04
  10.073  0.742E-06  0.371E-06  0.371E-06
  10.075  0.564E-04  0.282E-04  0.282E-04
  10.077  0.808E-03  0.404E-03  0.404E-03
  10.079  0.157E-02  0.784E-03  0.784E-03
  10.081  0.462E-03  0.231E-03  0.231E-03
  10.083  0.171E-02  0.854E-03  0.854E-03
  10.085  0.762E-02  0.381E-02  0.381E-02
  10.087  0.464E-02  0.232E-02  0.232E-02
  10.089  0.382E-03  0.191E-03  0.191E-03
  10.091  0.935E-04  0.468E-04  0.468E-04
  10.093  0.310E-02  0.155E-02  0.155E-02
  10.095  0.149E-01  0.744E-02  0.744E-02
  10.097  0.102E-01  0.508E-02  0.508E-02
  10.099  0.105E-02  0.523E-03  0.523E-03
  10.101  0.733E-03  0.366E-03  0.366E-03
  10.103  0.305E-02  0.152E-02  0.152E-02
  10.105  0.176E-02  0.879E-03  0.879E-03
  10.107  0.449E-03  0.224E-03  0.224E-03
  10.109  0.575E-02  0.288E-02  0.288E-02
  10.111  0.157E-01  0.785E-02  0.785E-02
  10.113  0.659E-02  0.329E-02  0.329E-02
  10.115  0.985E-03  0.493E-03  0.493E-03
  10.117  0.193E-02  0.965E-03  0.965E-03
  10.119  0.897E-03  0.448E-03  0.448E-03
  10.121  0.565E-04  0.283E-04  0.283E-04
  10.123  0.483E-06  0.241E-06  0.241E-06
  10.125  0.557E-09  0.279E-09  0.279E-09
  10.127  0.904E-13  0.452E-13  0.452E-13
  10.129  0.744E-10  0.372E-10  0.372E-10
  10.131  0.228E-06  0.114E-06  0.114E-06
  10.133  0.948E-04  0.474E-04  0.474E-04
  10.135  0.533E-02  0.266E-02  0.266E-02
  10.137  0.405E-01  0.203E-01  0.203E-01
  10.139  0.423E-01  0.212E-01  0.212E-01
  10.141  0.789E-02  0.395E-02  0.395E-02
  10.143  0.100E-02  0.502E-03  0.502E-03
  10.145  0.260E-03  0.130E-03  0.130E-03
  10.147  0.367E-02  0.183E-02  0.183E-02
  10.149  0.134E-01  0.670E-02  0.670E-02
  10.151  0.162E-01  0.812E-02  0.812E-02
  10.153  0.496E-02  0.248E-02  0.248E-02
  10.155  0.498E-02  0.249E-02  0.249E-02
  10.157  0.750E-02  0.375E-02  0.375E-02
  10.159  0.281E-02  0.141E-02  0.141E-02
  10.161  0.221E-03  0.111E-03  0.111E-03
  10.163  0.109E-03  0.545E-04  0.545E-04
  10.165  0.378E-02  0.189E-02  0.189E-02
  10.167  0.221E-01  0.111E-01  0.111E-01
  10.169  0.218E-01  0.109E-01  0.109E-01
  10.171  0.398E-02  0.199E-02  0.199E-02
  10.173  0.591E-02  0.296E-02  0.296E-02
  10.175  0.138E-01  0.689E-02  0.689E-02
  10.177  0.875E-02  0.437E-02  0.437E-02
  10.179  0.172E-02  0.860E-03  0.860E-03
  10.181  0.101E-02  0.503E-03  0.503E-03
  10.183  0.212E-02  0.106E-02  0.106E-02
  10.185  0.729E-02  0.364E-02  0.364E-02
  10.187  0.105E-01  0.524E-02  0.524E-02
  10.189  0.288E-02  0.144E-02  0.144E-02
  10.191  0.142E-02  0.712E-03  0.712E-03
  10.193  0.469E-02  0.234E-02  0.234E-02
  10.195  0.573E-02  0.286E-02  0.286E-02
  10.197  0.636E-02  0.318E-02  0.318E-02
  10.199  0.785E-02  0.392E-02  0.392E-02
  10.201  0.128E-01  0.639E-02  0.639E-02
  10.203  0.407E-02  0.203E-02  0.203E-02
  10.205  0.288E-03  0.144E-03  0.144E-03
  10.207  0.319E-02  0.160E-02  0.160E-02
  10.209  0.163E-01  0.817E-02  0.817E-02
  10.211  0.150E-01  0.750E-02  0.750E-02
  10.213  0.815E-02  0.407E-02  0.407E-02
  10.215  0.281E-02  0.141E-02  0.141E-02
  10.217  0.875E-03  0.437E-03  0.437E-03
  10.219  0.497E-02  0.249E-02  0.249E-02
  10.221  0.870E-02  0.435E-02  0.435E-02
  10.223  0.674E-02  0.337E-02  0.337E-02
  10.225  0.593E-02  0.297E-02  0.297E-02
  10.227  0.213E-01  0.106E-01  0.106E-01
  10.229  0.178E-01  0.889E-02  0.889E-02
  10.231  0.803E-02  0.402E-02  0.402E-02
  10.233  0.265E-02  0.133E-02  0.133E-02
  10.235  0.244E-03  0.122E-03  0.122E-03
  10.237  0.514E-05  0.257E-05  0.257E-05
  10.239  0.989E-04  0.495E-04  0.495E-04
  10.241  0.289E-02  0.145E-02  0.145E-02
  10.243  0.150E-01  0.749E-02  0.749E-02
  10.245  0.205E-01  0.102E-01  0.102E-01
  10.247  0.110E-01  0.552E-02  0.552E-02
  10.249  0.157E-02  0.783E-03  0.783E-03
  10.251  0.236E-03  0.118E-03  0.118E-03
  10.253  0.471E-03  0.236E-03  0.236E-03
  10.255  0.274E-02  0.137E-02  0.137E-02
  10.257  0.503E-02  0.252E-02  0.252E-02
  10.259  0.195E-02  0.975E-03  0.975E-03
  10.261  0.343E-02  0.171E-02  0.171E-02
  10.263  0.444E-02  0.222E-02  0.222E-02
  10.265  0.181E-02  0.903E-03  0.903E-03
  10.267  0.615E-03  0.307E-03  0.307E-03
  10.269  0.676E-02  0.338E-02  0.338E-02
  10.271  0.179E-01  0.893E-02  0.893E-02
  10.273  0.860E-02  0.430E-02  0.430E-02
  10.275  0.210E-02  0.105E-02  0.105E-02
  10.277  0.545E-02  0.272E-02  0.272E-02
  10.279  0.290E-02  0.145E-02  0.145E-02
  10.281  0.241E-03  0.121E-03  0.121E-03
  10.283  0.493E-04  0.246E-04  0.246E-04
  10.285  0.178E-02  0.889E-03  0.889E-03
  10.287  0.112E-01  0.559E-02  0.559E-02
  10.289  0.134E-01  0.671E-02  0.671E-02
  10.291  0.654E-02  0.327E-02  0.327E-02
  10.293  0.133E-02  0.666E-03  0.666E-03
  10.295  0.513E-03  0.256E-03  0.256E-03
  10.297  0.349E-02  0.174E-02  0.174E-02
  10.299  0.663E-02  0.331E-02  0.331E-02
  10.301  0.942E-02  0.471E-02  0.471E-02
  10.303  0.424E-02  0.212E-02  0.212E-02
  10.305  0.327E-03  0.163E-03  0.163E-03
  10.307  0.444E-03  0.222E-03  0.222E-03
  10.309  0.206E-02  0.103E-02  0.103E-02
  10.311  0.131E-02  0.653E-03  0.653E-03
  10.313  0.112E-03  0.561E-04  0.561E-04
  10.315  0.130E-05  0.651E-06  0.651E-06
  10.317  0.192E-06  0.959E-07  0.959E-07
  10.319  0.401E-04  0.201E-04  0.201E-04
  10.321  0.115E-02  0.574E-03  0.574E-03
  10.323  0.445E-02  0.223E-02  0.223E-02
  10.325  0.234E-02  0.117E-02  0.117E-02
  10.327  0.183E-03  0.916E-04  0.916E-04
  10.329  0.134E-04  0.671E-05  0.671E-05
  10.331  0.953E-05  0.477E-05  0.477E-05
  10.333  0.842E-03  0.421E-03  0.421E-03
  10.335  0.118E-01  0.592E-02  0.592E-02
  10.337  0.238E-01  0.119E-01  0.119E-01
  10.339  0.102E-01  0.512E-02  0.512E-02
  10.341  0.596E-02  0.298E-02  0.298E-02
  10.343  0.218E-02  0.109E-02  0.109E-02
  10.345  0.199E-03  0.996E-04  0.996E-04
  10.347  0.168E-02  0.838E-03  0.838E-03
  10.349  0.131E-01  0.653E-02  0.653E-02
  10.351  0.194E-01  0.971E-02  0.971E-02
  10.353  0.426E-02  0.213E-02  0.213E-02
  10.355  0.133E-03  0.666E-04  0.666E-04
  10.357  0.159E-04  0.796E-05  0.796E-05
  10.359  0.488E-03  0.244E-03  0.244E-03
  10.361  0.442E-02  0.221E-02  0.221E-02
  10.363  0.594E-02  0.297E-02  0.297E-02
  10.365  0.305E-02  0.153E-02  0.153E-02
  10.367  0.158E-02  0.788E-03  0.788E-03
  10.369  0.341E-02  0.170E-02  0.170E-02
  10.371  0.122E-01  0.612E-02  0.612E-02
  10.373  0.139E-01  0.695E-02  0.695E-02
  10.375  0.942E-02  0.471E-02  0.471E-02
  10.377  0.627E-02  0.314E-02  0.314E-02
  10.379  0.497E-02  0.249E-02  0.249E-02
  10.381  0.268E-02  0.134E-02  0.134E-02
  10.383  0.437E-02  0.219E-02  0.219E-02
  10.385  0.340E-02  0.170E-02  0.170E-02
  10.387  0.370E-03  0.185E-03  0.185E-03
  10.389  0.947E-05  0.473E-05  0.473E-05
  10.391  0.132E-04  0.661E-05  0.661E-05
  10.393  0.690E-05  0.345E-05  0.345E-05
  10.395  0.546E-06  0.273E-06  0.273E-06
  10.397  0.828E-07  0.414E-07  0.414E-07
  10.399  0.244E-04  0.122E-04  0.122E-04
  10.401  0.123E-02  0.617E-03  0.617E-03
  10.403  0.105E-01  0.527E-02  0.527E-02
  10.405  0.156E-01  0.781E-02  0.781E-02
  10.407  0.792E-02  0.396E-02  0.396E-02
  10.409  0.440E-02  0.220E-02  0.220E-02
  10.411  0.115E-02  0.573E-03  0.573E-03
  10.413  0.500E-02  0.250E-02  0.250E-02
  10.415  0.814E-02  0.407E-02  0.407E-02
  10.417  0.349E-02  0.174E-02  0.174E-02
  10.419  0.544E-02  0.272E-02  0.272E-02
  10.421  0.452E-02  0.226E-02  0.226E-02
  10.423  0.250E-02  0.125E-02  0.125E-02
  10.425  0.385E-03  0.192E-03  0.192E-03
  10.427  0.175E-02  0.876E-03  0.876E-03
  10.429  0.261E-01  0.131E-01  0.131E-01
  10.431  0.107E+00  0.535E-01  0.535E-01
  10.433  0.124E+00  0.619E-01  0.619E-01
  10.435  0.133E+00  0.663E-01  0.663E-01
  10.437  0.677E-01  0.339E-01  0.339E-01
  10.439  0.614E-01  0.307E-01  0.307E-01
  10.441  0.817E-01  0.408E-01  0.408E-01
  10.443  0.988E-01  0.494E-01  0.494E-01
  10.445  0.137E+00  0.684E-01  0.684E-01
  10.447  0.737E-01  0.368E-01  0.368E-01
  10.449  0.426E-01  0.213E-01  0.213E-01
  10.451  0.284E-01  0.142E-01  0.142E-01
  10.453  0.377E-01  0.189E-01  0.189E-01
  10.455  0.297E-01  0.148E-01  0.148E-01
  10.457  0.744E-01  0.372E-01  0.372E-01
  10.459  0.105E+00  0.527E-01  0.527E-01
  10.461  0.350E-01  0.175E-01  0.175E-01
  10.463  0.164E-01  0.819E-02  0.819E-02
  10.465  0.552E-01  0.276E-01  0.276E-01
  10.467  0.659E-01  0.329E-01  0.329E-01
  10.469  0.397E-01  0.199E-01  0.199E-01
  10.471  0.135E-01  0.674E-02  0.674E-02
  10.473  0.365E-02  0.183E-02  0.183E-02
  10.475  0.130E-01  0.651E-02  0.651E-02
  10.477  0.379E-01  0.190E-01  0.190E-01
  10.479  0.945E-01  0.472E-01  0.472E-01
  10.481  0.934E-01  0.467E-01  0.467E-01
  10.483  0.702E-01  0.351E-01  0.351E-01
  10.485  0.362E-01  0.181E-01  0.181E-01
  10.487  0.509E-02  0.254E-02  0.254E-02
  10.489  0.209E-03  0.104E-03  0.104E-03
  10.491  0.489E-02  0.245E-02  0.245E-02
  10.493  0.355E-01  0.177E-01  0.177E-01
  10.495  0.400E-01  0.200E-01  0.200E-01
  10.497  0.258E-01  0.129E-01  0.129E-01
  10.499  0.182E-01  0.911E-02  0.911E-02
  10.501  0.137E-01  0.685E-02  0.685E-02
  10.503  0.314E-01  0.157E-01  0.157E-01
  10.505  0.488E-01  0.244E-01  0.244E-01
  10.507  0.464E-01  0.232E-01  0.232E-01
  10.509  0.201E-01  0.100E-01  0.100E-01
  10.511  0.380E-01  0.190E-01  0.190E-01
  10.513  0.747E-01  0.374E-01  0.374E-01
  10.515  0.476E-01  0.238E-01  0.238E-01
  10.517  0.169E-01  0.845E-02  0.845E-02
  10.519  0.449E-02  0.225E-02  0.225E-02
  10.521  0.153E-02  0.764E-03  0.764E-03
  10.523  0.109E-02  0.547E-03  0.547E-03
  10.525  0.122E-01  0.610E-02  0.610E-02
  10.527  0.225E-01  0.113E-01  0.113E-01
  10.529  0.232E-01  0.116E-01  0.116E-01
  10.531  0.655E-01  0.328E-01  0.328E-01
  10.533  0.700E-01  0.350E-01  0.350E-01
  10.535  0.349E-01  0.175E-01  0.175E-01
  10.537  0.171E-01  0.853E-02  0.853E-02
  10.539  0.229E-02  0.114E-02  0.114E-02
  10.541  0.118E-02  0.590E-03  0.590E-03
  10.543  0.262E-02  0.131E-02  0.131E-02
  10.545  0.988E-02  0.494E-02  0.494E-02
  10.547  0.108E-01  0.539E-02  0.539E-02
  10.549  0.139E-01  0.693E-02  0.693E-02
  10.551  0.299E-01  0.150E-01  0.150E-01
  10.553  0.530E-01  0.265E-01  0.265E-01
  10.555  0.501E-01  0.250E-01  0.250E-01
  10.557  0.221E-01  0.110E-01  0.110E-01
  10.559  0.123E-01  0.615E-02  0.615E-02
  10.561  0.296E-01  0.148E-01  0.148E-01
  10.563  0.407E-01  0.203E-01  0.203E-01
  10.565  0.323E-01  0.161E-01  0.161E-01
  10.567  0.842E-02  0.421E-02  0.421E-02
  10.569  0.151E-01  0.756E-02  0.756E-02
  10.571  0.307E-01  0.154E-01  0.154E-01
  10.573  0.207E-01  0.103E-01  0.103E-01
  10.575  0.226E-01  0.113E-01  0.113E-01
  10.577  0.161E-01  0.807E-02  0.807E-02
  10.579  0.288E-01  0.144E-01  0.144E-01
  10.581  0.109E-01  0.546E-02  0.546E-02
  10.583  0.575E-03  0.287E-03  0.287E-03
  10.585  0.799E-05  0.399E-05  0.399E-05
  10.587  0.309E-06  0.154E-06  0.154E-06
  10.589  0.425E-04  0.213E-04  0.213E-04
  10.591  0.233E-02  0.117E-02  0.117E-02
  10.593  0.177E-01  0.886E-02  0.886E-02
  10.595  0.286E-01  0.143E-01  0.143E-01
  10.597  0.466E-01  0.233E-01  0.233E-01
  10.599  0.410E-01  0.205E-01  0.205E-01
  10.601  0.263E-01  0.131E-01  0.131E-01
  10.603  0.239E-01  0.120E-01  0.120E-01
  10.605  0.329E-01  0.165E-01  0.165E-01
  10.607  0.372E-01  0.186E-01  0.186E-01
  10.609  0.329E-01  0.165E-01  0.165E-01
  10.611  0.159E-01  0.797E-02  0.797E-02
  10.613  0.797E-02  0.398E-02  0.398E-02
  10.615  0.196E-02  0.980E-03  0.980E-03
  10.617  0.139E-02  0.696E-03  0.696E-03
  10.619  0.588E-02  0.294E-02  0.294E-02
  10.621  0.214E-01  0.107E-01  0.107E-01
  10.623  0.239E-01  0.119E-01  0.119E-01
  10.625  0.197E-01  0.983E-02  0.983E-02
  10.627  0.754E-02  0.377E-02  0.377E-02
  10.629  0.226E-01  0.113E-01  0.113E-01
  10.631  0.364E-01  0.182E-01  0.182E-01
  10.633  0.329E-01  0.164E-01  0.164E-01
  10.635  0.127E-01  0.634E-02  0.634E-02
  10.637  0.139E-01  0.695E-02  0.695E-02
  10.639  0.183E-01  0.914E-02  0.914E-02
  10.641  0.351E-02  0.176E-02  0.176E-02
  10.643  0.385E-02  0.193E-02  0.193E-02
  10.645  0.302E-01  0.151E-01  0.151E-01
  10.647  0.487E-01  0.244E-01  0.244E-01
  10.649  0.261E-01  0.130E-01  0.130E-01
  10.651  0.276E-01  0.138E-01  0.138E-01
  10.653  0.417E-01  0.209E-01  0.209E-01
  10.655  0.291E-01  0.146E-01  0.146E-01
  10.657  0.330E-02  0.165E-02  0.165E-02
  10.659  0.683E-03  0.341E-03  0.341E-03
  10.661  0.101E-01  0.505E-02  0.505E-02
  10.663  0.227E-01  0.114E-01  0.114E-01
  10.665  0.695E-02  0.347E-02  0.347E-02
  10.667  0.193E-02  0.966E-03  0.966E-03
  10.669  0.157E-01  0.786E-02  0.786E-02
  10.671  0.290E-01  0.145E-01  0.145E-01
  10.673  0.204E-01  0.102E-01  0.102E-01
  10.675  0.416E-02  0.208E-02  0.208E-02
  10.677  0.709E-02  0.355E-02  0.355E-02
  10.679  0.291E-01  0.146E-01  0.146E-01
  10.681  0.206E-01  0.103E-01  0.103E-01
  10.683  0.224E-02  0.112E-02  0.112E-02
  10.685  0.376E-04  0.188E-04  0.188E-04
  10.687  0.752E-05  0.376E-05  0.376E-05
  10.689  0.441E-03  0.221E-03  0.221E-03
  10.691  0.621E-02  0.311E-02  0.311E-02
  10.693  0.314E-01  0.157E-01  0.157E-01
  10.695  0.359E-01  0.179E-01  0.179E-01
  10.697  0.196E-01  0.982E-02  0.982E-02
  10.699  0.391E-01  0.195E-01  0.195E-01
  10.701  0.308E-01  0.154E-01  0.154E-01
  10.703  0.323E-01  0.161E-01  0.161E-01
  10.705  0.123E-01  0.613E-02  0.613E-02
  10.707  0.743E-02  0.371E-02  0.371E-02
  10.709  0.172E-01  0.862E-02  0.862E-02
  10.711  0.119E-01  0.596E-02  0.596E-02
  10.713  0.208E-01  0.104E-01  0.104E-01
  10.715  0.103E-01  0.515E-02  0.515E-02
  10.717  0.227E-02  0.114E-02  0.114E-02
  10.719  0.953E-03  0.476E-03  0.476E-03
  10.721  0.749E-02  0.375E-02  0.375E-02
  10.723  0.208E-01  0.104E-01  0.104E-01
  10.725  0.285E-01  0.143E-01  0.143E-01
  10.727  0.434E-01  0.217E-01  0.217E-01
  10.729  0.146E-01  0.728E-02  0.728E-02
  10.731  0.189E-02  0.947E-03  0.947E-03
  10.733  0.719E-03  0.359E-03  0.359E-03
  10.735  0.310E-03  0.155E-03  0.155E-03
  10.737  0.299E-02  0.150E-02  0.150E-02
  10.739  0.159E-01  0.794E-02  0.794E-02
  10.741  0.118E-01  0.590E-02  0.590E-02
  10.743  0.127E-02  0.635E-03  0.635E-03
  10.745  0.214E-02  0.107E-02  0.107E-02
  10.747  0.831E-02  0.416E-02  0.416E-02
  10.749  0.793E-02  0.397E-02  0.397E-02
  10.751  0.888E-02  0.444E-02  0.444E-02
  10.753  0.351E-01  0.175E-01  0.175E-01
  10.755  0.398E-01  0.199E-01  0.199E-01
  10.757  0.183E-01  0.916E-02  0.916E-02
  10.759  0.404E-01  0.202E-01  0.202E-01
  10.761  0.260E-01  0.130E-01  0.130E-01
  10.763  0.311E-02  0.155E-02  0.155E-02
  10.765  0.135E-01  0.675E-02  0.675E-02
  10.767  0.428E-01  0.214E-01  0.214E-01
  10.769  0.261E-01  0.130E-01  0.130E-01
  10.771  0.377E-02  0.188E-02  0.188E-02
  10.773  0.186E-02  0.929E-03  0.929E-03
  10.775  0.604E-02  0.302E-02  0.302E-02
  10.777  0.303E-02  0.152E-02  0.152E-02
  10.779  0.943E-03  0.472E-03  0.472E-03
  10.781  0.905E-02  0.453E-02  0.453E-02
  10.783  0.309E-01  0.155E-01  0.155E-01
  10.785  0.388E-01  0.194E-01  0.194E-01
  10.787  0.125E-01  0.624E-02  0.624E-02
  10.789  0.505E-02  0.253E-02  0.253E-02
  10.791  0.119E-01  0.596E-02  0.596E-02
  10.793  0.203E-01  0.102E-01  0.102E-01
  10.795  0.220E-01  0.110E-01  0.110E-01
  10.797  0.770E-02  0.385E-02  0.385E-02
  10.799  0.205E-02  0.102E-02  0.102E-02
  10.801  0.164E-02  0.818E-03  0.818E-03
  10.803  0.128E-02  0.639E-03  0.639E-03
  10.805  0.109E-01  0.545E-02  0.545E-02
  10.807  0.306E-01  0.153E-01  0.153E-01
  10.809  0.496E-01  0.248E-01  0.248E-01
  10.811  0.434E-01  0.217E-01  0.217E-01
  10.813  0.150E-01  0.750E-02  0.750E-02
  10.815  0.830E-02  0.415E-02  0.415E-02
  10.817  0.290E-02  0.145E-02  0.145E-02
  10.819  0.293E-02  0.147E-02  0.147E-02
  10.821  0.682E-02  0.341E-02  0.341E-02
  10.823  0.304E-02  0.152E-02  0.152E-02
  10.825  0.729E-02  0.365E-02  0.365E-02
  10.827  0.252E-01  0.126E-01  0.126E-01
  10.829  0.378E-01  0.189E-01  0.189E-01
  10.831  0.242E-01  0.121E-01  0.121E-01
  10.833  0.370E-02  0.185E-02  0.185E-02
  10.835  0.279E-03  0.140E-03  0.140E-03
  10.837  0.530E-03  0.265E-03  0.265E-03
  10.839  0.186E-02  0.931E-03  0.931E-03
  10.841  0.116E-01  0.579E-02  0.579E-02
  10.843  0.208E-01  0.104E-01  0.104E-01
  10.845  0.997E-02  0.499E-02  0.499E-02
  10.847  0.122E-02  0.610E-03  0.610E-03
  10.849  0.625E-03  0.312E-03  0.312E-03
  10.851  0.627E-02  0.314E-02  0.314E-02
  10.853  0.165E-01  0.826E-02  0.826E-02
  10.855  0.670E-02  0.335E-02  0.335E-02
  10.857  0.103E-01  0.516E-02  0.516E-02
  10.859  0.257E-01  0.128E-01  0.128E-01
  10.861  0.247E-01  0.124E-01  0.124E-01
  10.863  0.343E-01  0.171E-01  0.171E-01
  10.865  0.415E-01  0.208E-01  0.208E-01
  10.867  0.249E-01  0.125E-01  0.125E-01
  10.869  0.128E-01  0.639E-02  0.639E-02
  10.871  0.401E-02  0.201E-02  0.201E-02
  10.873  0.136E-01  0.679E-02  0.679E-02
  10.875  0.112E-01  0.558E-02  0.558E-02
  10.877  0.196E-02  0.979E-03  0.979E-03
  10.879  0.386E-02  0.193E-02  0.193E-02
  10.881  0.992E-02  0.496E-02  0.496E-02
  10.883  0.915E-02  0.458E-02  0.458E-02
  10.885  0.640E-02  0.320E-02  0.320E-02
  10.887  0.111E-01  0.555E-02  0.555E-02
  10.889  0.111E-01  0.554E-02  0.554E-02
  10.891  0.105E-01  0.526E-02  0.526E-02
  10.893  0.146E-01  0.728E-02  0.728E-02
  10.895  0.343E-02  0.172E-02  0.172E-02
  10.897  0.660E-02  0.330E-02  0.330E-02
  10.899  0.233E-01  0.117E-01  0.117E-01
  10.901  0.175E-01  0.876E-02  0.876E-02
  10.903  0.200E-01  0.100E-01  0.100E-01
  10.905  0.140E-01  0.699E-02  0.699E-02
  10.907  0.504E-02  0.252E-02  0.252E-02
  10.909  0.136E-01  0.680E-02  0.680E-02
  10.911  0.110E-01  0.549E-02  0.549E-02
  10.913  0.246E-01  0.123E-01  0.123E-01
  10.915  0.390E-01  0.195E-01  0.195E-01
  10.917  0.141E-01  0.705E-02  0.705E-02
  10.919  0.747E-02  0.374E-02  0.374E-02
  10.921  0.204E-01  0.102E-01  0.102E-01
  10.923  0.264E-01  0.132E-01  0.132E-01
  10.925  0.203E-01  0.102E-01  0.102E-01
  10.927  0.197E-01  0.984E-02  0.984E-02
  10.929  0.875E-02  0.437E-02  0.437E-02
  10.931  0.289E-02  0.145E-02  0.145E-02
  10.933  0.207E-01  0.104E-01  0.104E-01
  10.935  0.329E-01  0.164E-01  0.164E-01
  10.937  0.127E-01  0.637E-02  0.637E-02
  10.939  0.142E-02  0.709E-03  0.709E-03
  10.941  0.293E-03  0.146E-03  0.146E-03
  10.943  0.545E-02  0.272E-02  0.272E-02
  10.945  0.172E-01  0.861E-02  0.861E-02
  10.947  0.163E-01  0.815E-02  0.815E-02
  10.949  0.263E-01  0.132E-01  0.132E-01
  10.951  0.117E-01  0.583E-02  0.583E-02
  10.953  0.327E-02  0.164E-02  0.164E-02
  10.955  0.155E-01  0.776E-02  0.776E-02
  10.957  0.248E-01  0.124E-01  0.124E-01
  10.959  0.159E-01  0.793E-02  0.793E-02
  10.961  0.684E-02  0.342E-02  0.342E-02
  10.963  0.147E-01  0.736E-02  0.736E-02
  10.965  0.190E-01  0.950E-02  0.950E-02
  10.967  0.226E-01  0.113E-01  0.113E-01
  10.969  0.185E-01  0.927E-02  0.927E-02
  10.971  0.168E-01  0.842E-02  0.842E-02
  10.973  0.147E-01  0.735E-02  0.735E-02
  10.975  0.843E-02  0.421E-02  0.421E-02
  10.977  0.281E-01  0.140E-01  0.140E-01
  10.979  0.322E-01  0.161E-01  0.161E-01
  10.981  0.304E-01  0.152E-01  0.152E-01
  10.983  0.218E-01  0.109E-01  0.109E-01
  10.985  0.356E-02  0.178E-02  0.178E-02
  10.987  0.633E-02  0.317E-02  0.317E-02
  10.989  0.205E-01  0.102E-01  0.102E-01
  10.991  0.138E-01  0.689E-02  0.689E-02
  10.993  0.201E-02  0.101E-02  0.101E-02
  10.995  0.349E-02  0.174E-02  0.174E-02
  10.997  0.129E-01  0.645E-02  0.645E-02
  10.999  0.301E-01  0.151E-01  0.151E-01
  11.001  0.305E-01  0.152E-01  0.152E-01
  11.003  0.148E-01  0.738E-02  0.738E-02
  11.005  0.132E-01  0.659E-02  0.659E-02
  11.007  0.145E-01  0.723E-02  0.723E-02
  11.009  0.291E-01  0.145E-01  0.145E-01
  11.011  0.233E-01  0.117E-01  0.117E-01
  11.013  0.360E-02  0.180E-02  0.180E-02
  11.015  0.935E-04  0.468E-04  0.468E-04
  11.017  0.203E-04  0.102E-04  0.102E-04
  11.019  0.394E-03  0.197E-03  0.197E-03
  11.021  0.118E-02  0.590E-03  0.590E-03
  11.023  0.344E-02  0.172E-02  0.172E-02
  11.025  0.182E-01  0.908E-02  0.908E-02
  11.027  0.175E-01  0.876E-02  0.876E-02
  11.029  0.213E-01  0.106E-01  0.106E-01
  11.031  0.380E-01  0.190E-01  0.190E-01
  11.033  0.165E-01  0.825E-02  0.825E-02
  11.035  0.133E-01  0.664E-02  0.664E-02
  11.037  0.129E-01  0.647E-02  0.647E-02
  11.039  0.739E-02  0.370E-02  0.370E-02
  11.041  0.764E-03  0.382E-03  0.382E-03
  11.043  0.128E-02  0.638E-03  0.638E-03
  11.045  0.863E-02  0.432E-02  0.432E-02
  11.047  0.805E-02  0.402E-02  0.402E-02
  11.049  0.133E-02  0.665E-03  0.665E-03
  11.051  0.149E-02  0.746E-03  0.746E-03
  11.053  0.126E-02  0.628E-03  0.628E-03
  11.055  0.708E-02  0.354E-02  0.354E-02
  11.057  0.272E-01  0.136E-01  0.136E-01
  11.059  0.209E-01  0.104E-01  0.104E-01
  11.061  0.955E-02  0.477E-02  0.477E-02
  11.063  0.152E-01  0.762E-02  0.762E-02
  11.065  0.123E-01  0.616E-02  0.616E-02
  11.067  0.638E-02  0.319E-02  0.319E-02
  11.069  0.112E-01  0.558E-02  0.558E-02
  11.071  0.479E-02  0.239E-02  0.239E-02
  11.073  0.603E-03  0.302E-03  0.302E-03
  11.075  0.244E-02  0.122E-02  0.122E-02
  11.077  0.745E-02  0.373E-02  0.373E-02
  11.079  0.138E-01  0.692E-02  0.692E-02
  11.081  0.294E-01  0.147E-01  0.147E-01
  11.083  0.261E-01  0.131E-01  0.131E-01
  11.085  0.131E-01  0.655E-02  0.655E-02
  11.087  0.916E-02  0.458E-02  0.458E-02
  11.089  0.136E-01  0.680E-02  0.680E-02
  11.091  0.263E-01  0.131E-01  0.131E-01
  11.093  0.252E-01  0.126E-01  0.126E-01
  11.095  0.497E-02  0.249E-02  0.249E-02
  11.097  0.658E-03  0.329E-03  0.329E-03
  11.099  0.411E-02  0.205E-02  0.205E-02
  11.101  0.201E-01  0.101E-01  0.101E-01
  11.103  0.165E-01  0.826E-02  0.826E-02
  11.105  0.102E-01  0.509E-02  0.509E-02
  11.107  0.513E-02  0.256E-02  0.256E-02
  11.109  0.249E-02  0.125E-02  0.125E-02
  11.111  0.863E-02  0.431E-02  0.431E-02
  11.113  0.995E-02  0.497E-02  0.497E-02
  11.115  0.274E-01  0.137E-01  0.137E-01
  11.117  0.274E-01  0.137E-01  0.137E-01
  11.119  0.485E-02  0.243E-02  0.243E-02
  11.121  0.250E-03  0.125E-03  0.125E-03
  11.123  0.449E-02  0.225E-02  0.225E-02
  11.125  0.262E-01  0.131E-01  0.131E-01
  11.127  0.454E-01  0.227E-01  0.227E-01
  11.129  0.535E-01  0.268E-01  0.268E-01
  11.131  0.504E-01  0.252E-01  0.252E-01
  11.133  0.451E-01  0.226E-01  0.226E-01
  11.135  0.132E-01  0.661E-02  0.661E-02
  11.137  0.207E-02  0.104E-02  0.104E-02
  11.139  0.942E-02  0.471E-02  0.471E-02
  11.141  0.451E-01  0.225E-01  0.225E-01
  11.143  0.478E-01  0.239E-01  0.239E-01
  11.145  0.317E-01  0.159E-01  0.159E-01
  11.147  0.176E-01  0.881E-02  0.881E-02
  11.149  0.805E-02  0.403E-02  0.403E-02
  11.151  0.710E-02  0.355E-02  0.355E-02
  11.153  0.958E-02  0.479E-02  0.479E-02
  11.155  0.389E-01  0.194E-01  0.194E-01
  11.157  0.501E-01  0.251E-01  0.251E-01
  11.159  0.285E-01  0.142E-01  0.142E-01
  11.161  0.553E-02  0.276E-02  0.276E-02
  11.163  0.115E-02  0.576E-03  0.576E-03
  11.165  0.487E-03  0.243E-03  0.243E-03
  11.167  0.108E-03  0.539E-04  0.539E-04
  11.169  0.308E-02  0.154E-02  0.154E-02
  11.171  0.178E-01  0.891E-02  0.891E-02
  11.173  0.140E-01  0.700E-02  0.700E-02
  11.175  0.222E-02  0.111E-02  0.111E-02
  11.177  0.116E-01  0.580E-02  0.580E-02
  11.179  0.334E-01  0.167E-01  0.167E-01
  11.181  0.307E-01  0.153E-01  0.153E-01
  11.183  0.191E-01  0.953E-02  0.953E-02
  11.185  0.221E-01  0.110E-01  0.110E-01
  11.187  0.160E-01  0.802E-02  0.802E-02
  11.189  0.218E-01  0.109E-01  0.109E-01
  11.191  0.159E-01  0.793E-02  0.793E-02
  11.193  0.256E-02  0.128E-02  0.128E-02
  11.195  0.585E-02  0.292E-02  0.292E-02
  11.197  0.130E-01  0.650E-02  0.650E-02
  11.199  0.130E-01  0.649E-02  0.649E-02
  11.201  0.127E-01  0.637E-02  0.637E-02
  11.203  0.112E-01  0.560E-02  0.560E-02
  11.205  0.201E-01  0.100E-01  0.100E-01
  11.207  0.108E-01  0.540E-02  0.540E-02
  11.209  0.621E-02  0.310E-02  0.310E-02
  11.211  0.852E-02  0.426E-02  0.426E-02
  11.213  0.219E-02  0.110E-02  0.110E-02
  11.215  0.979E-03  0.490E-03  0.490E-03
  11.217  0.462E-03  0.231E-03  0.231E-03
  11.219  0.137E-02  0.687E-03  0.687E-03
  11.221  0.143E-01  0.716E-02  0.716E-02
  11.223  0.210E-01  0.105E-01  0.105E-01
  11.225  0.424E-02  0.212E-02  0.212E-02
  11.227  0.118E-03  0.590E-04  0.590E-04
  11.229  0.506E-06  0.253E-06  0.253E-06
  11.231  0.238E-04  0.119E-04  0.119E-04
  11.233  0.158E-02  0.789E-03  0.789E-03
  11.235  0.161E-01  0.807E-02  0.807E-02
  11.237  0.272E-01  0.136E-01  0.136E-01
  11.239  0.996E-02  0.498E-02  0.498E-02
  11.241  0.130E-02  0.651E-03  0.651E-03
  11.243  0.328E-02  0.164E-02  0.164E-02
  11.245  0.942E-02  0.471E-02  0.471E-02
  11.247  0.880E-02  0.440E-02  0.440E-02
  11.249  0.113E-01  0.565E-02  0.565E-02
  11.251  0.995E-02  0.497E-02  0.497E-02
  11.253  0.357E-02  0.179E-02  0.179E-02
  11.255  0.538E-02  0.269E-02  0.269E-02
  11.257  0.882E-02  0.441E-02  0.441E-02
  11.259  0.230E-02  0.115E-02  0.115E-02
  11.261  0.201E-03  0.101E-03  0.101E-03
  11.263  0.316E-04  0.158E-04  0.158E-04
  11.265  0.121E-05  0.604E-06  0.604E-06
  11.267  0.449E-04  0.224E-04  0.224E-04
  11.269  0.220E-02  0.110E-02  0.110E-02
  11.271  0.146E-01  0.732E-02  0.732E-02
  11.273  0.133E-01  0.663E-02  0.663E-02
  11.275  0.167E-02  0.836E-03  0.836E-03
  11.277  0.318E-04  0.159E-04  0.159E-04
  11.279  0.183E-05  0.914E-06  0.914E-06
  11.281  0.863E-04  0.431E-04  0.431E-04
  11.283  0.839E-03  0.420E-03  0.420E-03
  11.285  0.448E-02  0.224E-02  0.224E-02
  11.287  0.114E-01  0.568E-02  0.568E-02
  11.289  0.169E-01  0.846E-02  0.846E-02
  11.291  0.129E-01  0.643E-02  0.643E-02
  11.293  0.651E-02  0.326E-02  0.326E-02
  11.295  0.106E-02  0.531E-03  0.531E-03
  11.297  0.322E-02  0.161E-02  0.161E-02
  11.299  0.100E-01  0.501E-02  0.501E-02
  11.301  0.106E-01  0.531E-02  0.531E-02
  11.303  0.541E-02  0.271E-02  0.271E-02
  11.305  0.751E-03  0.375E-03  0.375E-03
  11.307  0.573E-02  0.286E-02  0.286E-02
  11.309  0.317E-01  0.159E-01  0.159E-01
  11.311  0.287E-01  0.144E-01  0.144E-01
  11.313  0.127E-01  0.634E-02  0.634E-02
  11.315  0.275E-01  0.137E-01  0.137E-01
  11.317  0.126E-01  0.632E-02  0.632E-02
  11.319  0.849E-03  0.425E-03  0.425E-03
  11.321  0.820E-05  0.410E-05  0.410E-05
  11.323  0.112E-07  0.561E-08  0.561E-08
  11.325  0.218E-07  0.109E-07  0.109E-07
  11.327  0.110E-04  0.551E-05  0.551E-05
  11.329  0.799E-03  0.399E-03  0.399E-03
  11.331  0.883E-02  0.441E-02  0.441E-02
  11.333  0.176E-01  0.882E-02  0.882E-02
  11.335  0.889E-02  0.444E-02  0.444E-02
  11.337  0.158E-02  0.790E-03  0.790E-03
  11.339  0.200E-02  0.100E-02  0.100E-02
  11.341  0.136E-02  0.680E-03  0.680E-03
  11.343  0.667E-03  0.333E-03  0.333E-03
  11.345  0.189E-02  0.946E-03  0.946E-03
  11.347  0.572E-02  0.286E-02  0.286E-02
  11.349  0.158E-01  0.792E-02  0.792E-02
  11.351  0.235E-01  0.118E-01  0.118E-01
  11.353  0.923E-02  0.462E-02  0.462E-02
  11.355  0.807E-02  0.403E-02  0.403E-02
  11.357  0.242E-01  0.121E-01  0.121E-01
  11.359  0.251E-01  0.125E-01  0.125E-01
  11.361  0.156E-01  0.781E-02  0.781E-02
  11.363  0.780E-02  0.390E-02  0.390E-02
  11.365  0.852E-02  0.426E-02  0.426E-02
  11.367  0.279E-02  0.140E-02  0.140E-02
  11.369  0.691E-03  0.346E-03  0.346E-03
  11.371  0.974E-04  0.487E-04  0.487E-04
  11.373  0.594E-05  0.297E-05  0.297E-05
  11.375  0.115E-03  0.574E-04  0.574E-04
  11.377  0.221E-02  0.110E-02  0.110E-02
  11.379  0.576E-02  0.288E-02  0.288E-02
  11.381  0.216E-02  0.108E-02  0.108E-02
  11.383  0.728E-03  0.364E-03  0.364E-03
  11.385  0.729E-03  0.364E-03  0.364E-03
  11.387  0.165E-02  0.827E-03  0.827E-03
  11.389  0.194E-02  0.969E-03  0.969E-03
  11.391  0.347E-03  0.173E-03  0.173E-03
  11.393  0.502E-03  0.251E-03  0.251E-03
  11.395  0.956E-02  0.478E-02  0.478E-02
  11.397  0.314E-01  0.157E-01  0.157E-01
  11.399  0.222E-01  0.111E-01  0.111E-01
  11.401  0.751E-02  0.375E-02  0.375E-02
  11.403  0.183E-02  0.917E-03  0.917E-03
  11.405  0.700E-02  0.350E-02  0.350E-02
  11.407  0.844E-02  0.422E-02  0.422E-02
  11.409  0.148E-02  0.741E-03  0.741E-03
  11.411  0.218E-03  0.109E-03  0.109E-03
  11.413  0.330E-03  0.165E-03  0.165E-03
  11.415  0.875E-04  0.437E-04  0.437E-04
  11.417  0.254E-03  0.127E-03  0.127E-03
  11.419  0.295E-02  0.147E-02  0.147E-02
  11.421  0.495E-02  0.247E-02  0.247E-02
  11.423  0.120E-02  0.601E-03  0.601E-03
  11.425  0.847E-03  0.424E-03  0.424E-03
  11.427  0.792E-02  0.396E-02  0.396E-02
  11.429  0.115E-01  0.577E-02  0.577E-02
  11.431  0.448E-02  0.224E-02  0.224E-02
  11.433  0.835E-02  0.418E-02  0.418E-02
  11.435  0.815E-02  0.407E-02  0.407E-02
  11.437  0.310E-02  0.155E-02  0.155E-02
  11.439  0.777E-02  0.388E-02  0.388E-02
  11.441  0.156E-01  0.782E-02  0.782E-02
  11.443  0.178E-01  0.889E-02  0.889E-02
  11.445  0.127E-01  0.633E-02  0.633E-02
  11.447  0.890E-02  0.445E-02  0.445E-02
  11.449  0.826E-02  0.413E-02  0.413E-02
  11.451  0.426E-02  0.213E-02  0.213E-02
  11.453  0.498E-03  0.249E-03  0.249E-03
  11.455  0.212E-03  0.106E-03  0.106E-03
  11.457  0.189E-02  0.946E-03  0.946E-03
  11.459  0.472E-02  0.236E-02  0.236E-02
  11.461  0.166E-02  0.829E-03  0.829E-03
  11.463  0.215E-03  0.107E-03  0.107E-03
  11.465  0.737E-04  0.369E-04  0.369E-04
  11.467  0.529E-04  0.265E-04  0.265E-04
  11.469  0.823E-04  0.412E-04  0.412E-04
  11.471  0.243E-04  0.122E-04  0.122E-04
  11.473  0.172E-05  0.859E-06  0.859E-06
  11.475  0.727E-04  0.364E-04  0.364E-04
  11.477  0.159E-02  0.797E-03  0.797E-03
  11.479  0.497E-02  0.249E-02  0.249E-02
  11.481  0.397E-02  0.199E-02  0.199E-02
  11.483  0.530E-02  0.265E-02  0.265E-02
  11.485  0.141E-01  0.705E-02  0.705E-02
  11.487  0.120E-01  0.599E-02  0.599E-02
  11.489  0.534E-02  0.267E-02  0.267E-02
  11.491  0.570E-02  0.285E-02  0.285E-02
  11.493  0.105E-01  0.527E-02  0.527E-02
  11.495  0.143E-01  0.715E-02  0.715E-02
  11.497  0.682E-02  0.341E-02  0.341E-02
  11.499  0.197E-01  0.985E-02  0.985E-02
  11.501  0.184E-01  0.922E-02  0.922E-02
  11.503  0.942E-02  0.471E-02  0.471E-02
  11.505  0.724E-02  0.362E-02  0.362E-02
  11.507  0.127E-02  0.637E-03  0.637E-03
  11.509  0.133E-02  0.667E-03  0.667E-03
  11.511  0.109E-02  0.545E-03  0.545E-03
  11.513  0.123E-03  0.613E-04  0.613E-04
  11.515  0.304E-05  0.152E-05  0.152E-05
  11.517  0.232E-04  0.116E-04  0.116E-04
  11.519  0.834E-04  0.417E-04  0.417E-04
  11.521  0.183E-03  0.913E-04  0.913E-04
  11.523  0.148E-02  0.740E-03  0.740E-03
  11.525  0.981E-02  0.490E-02  0.490E-02
  11.527  0.145E-01  0.726E-02  0.726E-02
  11.529  0.111E-01  0.557E-02  0.557E-02
  11.531  0.784E-02  0.392E-02  0.392E-02
  11.533  0.120E-02  0.601E-03  0.601E-03
  11.535  0.201E-03  0.100E-03  0.100E-03
  11.537  0.167E-02  0.833E-03  0.833E-03
  11.539  0.540E-02  0.270E-02  0.270E-02
  11.541  0.609E-02  0.304E-02  0.304E-02
  11.543  0.931E-02  0.466E-02  0.466E-02
  11.545  0.465E-02  0.232E-02  0.232E-02
  11.547  0.593E-02  0.296E-02  0.296E-02
  11.549  0.890E-02  0.445E-02  0.445E-02
  11.551  0.407E-02  0.203E-02  0.203E-02
  11.553  0.479E-02  0.239E-02  0.239E-02
  11.555  0.489E-02  0.244E-02  0.244E-02
  11.557  0.268E-02  0.134E-02  0.134E-02
  11.559  0.772E-03  0.386E-03  0.386E-03
  11.561  0.410E-02  0.205E-02  0.205E-02
  11.563  0.843E-02  0.421E-02  0.421E-02
  11.565  0.654E-02  0.327E-02  0.327E-02
  11.567  0.156E-02  0.782E-03  0.782E-03
  11.569  0.185E-02  0.926E-03  0.926E-03
  11.571  0.970E-02  0.485E-02  0.485E-02
  11.573  0.116E-01  0.580E-02  0.580E-02
  11.575  0.680E-02  0.340E-02  0.340E-02
  11.577  0.113E-02  0.565E-03  0.565E-03
  11.579  0.137E-02  0.684E-03  0.684E-03
  11.581  0.612E-02  0.306E-02  0.306E-02
  11.583  0.122E-01  0.609E-02  0.609E-02
  11.585  0.141E-01  0.703E-02  0.703E-02
  11.587  0.728E-02  0.364E-02  0.364E-02
  11.589  0.105E-02  0.525E-03  0.525E-03
  11.591  0.159E-02  0.796E-03  0.796E-03
  11.593  0.541E-02  0.270E-02  0.270E-02
  11.595  0.590E-02  0.295E-02  0.295E-02
  11.597  0.219E-02  0.110E-02  0.110E-02
  11.599  0.250E-02  0.125E-02  0.125E-02
  11.601  0.200E-02  0.100E-02  0.100E-02
  11.603  0.188E-02  0.940E-03  0.940E-03
  11.605  0.942E-02  0.471E-02  0.471E-02
  11.607  0.153E-01  0.766E-02  0.766E-02
  11.609  0.106E-01  0.528E-02  0.528E-02
  11.611  0.369E-02  0.184E-02  0.184E-02
  11.613  0.523E-02  0.262E-02  0.262E-02
  11.615  0.595E-02  0.297E-02  0.297E-02
  11.617  0.529E-02  0.265E-02  0.265E-02
  11.619  0.256E-02  0.128E-02  0.128E-02
  11.621  0.345E-02  0.173E-02  0.173E-02
  11.623  0.287E-02  0.144E-02  0.144E-02
  11.625  0.775E-02  0.387E-02  0.387E-02
  11.627  0.663E-02  0.332E-02  0.332E-02
