# E (eV)   ldos(E)   pdos(E)_1   pdos(E)_2   
   7.605  0.205E-05  0.103E-05  0.103E-05
   7.607  0.128E-03  0.638E-04  0.638E-04
   7.609  0.109E-02  0.543E-03  0.543E-03
   7.611  0.136E-02  0.679E-03  0.679E-03
   7.613  0.472E-03  0.236E-03  0.236E-03
   7.615  0.146E-03  0.729E-04  0.729E-04
   7.617  0.149E-04  0.747E-05  0.747E-05
   7.619  0.472E-04  0.236E-04  0.236E-04
   7.621  0.163E-03  0.815E-04  0.815E-04
   7.623  0.765E-04  0.383E-04  0.383E-04
   7.625  0.486E-05  0.243E-05  0.243E-05
   7.627  0.418E-07  0.209E-07  0.209E-07
   7.629  0.487E-10  0.244E-10  0.244E-10
   7.631  0.767E-14  0.384E-14  0.384E-14
   7.633  0.165E-18  0.823E-19  0.823E-19
   7.635  0.100E-15  0.502E-16  0.502E-16
   7.637  0.144E-11  0.720E-12  0.720E-12
   7.639  0.283E-08  0.141E-08  0.141E-08
   7.641  0.776E-06  0.388E-06  0.388E-06
   7.643  0.311E-04  0.155E-04  0.155E-04
   7.645  0.197E-03  0.985E-04  0.985E-04
   7.647  0.214E-03  0.107E-03  0.107E-03
   7.649  0.418E-04  0.209E-04  0.209E-04
   7.651  0.484E-04  0.242E-04  0.242E-04
   7.653  0.143E-03  0.717E-04  0.717E-04
   7.655  0.636E-04  0.318E-04  0.318E-04
   7.657  0.243E-03  0.122E-03  0.122E-03
   7.659  0.162E-02  0.811E-03  0.811E-03
   7.661  0.148E-02  0.741E-03  0.741E-03
   7.663  0.190E-03  0.950E-04  0.950E-04
   7.665  0.271E-03  0.136E-03  0.136E-03
   7.667  0.146E-02  0.731E-03  0.731E-03
   7.669  0.108E-02  0.540E-03  0.540E-03
   7.671  0.108E-03  0.539E-04  0.539E-04
   7.673  0.189E-05  0.947E-06  0.947E-06
   7.675  0.228E-04  0.114E-04  0.114E-04
   7.677  0.166E-03  0.831E-04  0.831E-04
   7.679  0.170E-03  0.852E-04  0.852E-04
   7.681  0.394E-04  0.197E-04  0.197E-04
   7.683  0.105E-03  0.526E-04  0.526E-04
   7.685  0.369E-03  0.184E-03  0.184E-03
   7.687  0.163E-02  0.816E-03  0.816E-03
   7.689  0.126E-02  0.632E-03  0.632E-03
   7.691  0.133E-03  0.667E-04  0.667E-04
   7.693  0.190E-05  0.952E-06  0.952E-06
   7.695  0.368E-08  0.184E-08  0.184E-08
   7.697  0.962E-12  0.481E-12  0.481E-12
   7.699  0.500E-13  0.250E-13  0.250E-13
   7.701  0.212E-09  0.106E-09  0.106E-09
   7.703  0.122E-06  0.612E-07  0.612E-07
   7.705  0.961E-05  0.480E-05  0.480E-05
   7.707  0.103E-03  0.513E-04  0.513E-04
   7.709  0.150E-03  0.751E-04  0.751E-04
   7.711  0.590E-04  0.295E-04  0.295E-04
   7.713  0.937E-04  0.469E-04  0.469E-04
   7.715  0.396E-04  0.198E-04  0.198E-04
   7.717  0.228E-05  0.114E-05  0.114E-05
   7.719  0.178E-07  0.888E-08  0.888E-08
   7.721  0.282E-10  0.141E-10  0.141E-10
   7.723  0.243E-07  0.122E-07  0.122E-07
   7.725  0.868E-05  0.434E-05  0.434E-05
   7.727  0.434E-03  0.217E-03  0.217E-03
   7.729  0.305E-02  0.152E-02  0.152E-02
   7.731  0.301E-02  0.151E-02  0.151E-02
   7.733  0.434E-03  0.217E-03  0.217E-03
   7.735  0.103E-02  0.517E-03  0.517E-03
   7.737  0.148E-01  0.738E-02  0.738E-02
   7.739  0.446E-01  0.223E-01  0.223E-01
   7.741  0.683E-01  0.341E-01  0.341E-01
   7.743  0.922E-01  0.461E-01  0.461E-01
   7.745  0.795E-01  0.398E-01  0.398E-01
   7.747  0.356E-01  0.178E-01  0.178E-01
   7.749  0.190E-01  0.949E-02  0.949E-02
   7.751  0.196E-01  0.979E-02  0.979E-02
   7.753  0.993E-02  0.496E-02  0.496E-02
   7.755  0.807E-02  0.403E-02  0.403E-02
   7.757  0.942E-02  0.471E-02  0.471E-02
   7.759  0.173E-01  0.864E-02  0.864E-02
   7.761  0.165E-01  0.823E-02  0.823E-02
   7.763  0.252E-02  0.126E-02  0.126E-02
   7.765  0.307E-02  0.154E-02  0.154E-02
   7.767  0.890E-02  0.445E-02  0.445E-02
   7.769  0.481E-02  0.241E-02  0.241E-02
   7.771  0.104E-01  0.519E-02  0.519E-02
   7.773  0.168E-01  0.839E-02  0.839E-02
   7.775  0.780E-02  0.390E-02  0.390E-02
   7.777  0.852E-03  0.426E-03  0.426E-03
   7.779  0.220E-02  0.110E-02  0.110E-02
   7.781  0.829E-02  0.415E-02  0.415E-02
   7.783  0.440E-02  0.220E-02  0.220E-02
   7.785  0.398E-02  0.199E-02  0.199E-02
   7.787  0.116E-01  0.579E-02  0.579E-02
   7.789  0.532E-02  0.266E-02  0.266E-02
   7.791  0.510E-02  0.255E-02  0.255E-02
   7.793  0.878E-02  0.439E-02  0.439E-02
   7.795  0.501E-02  0.250E-02  0.250E-02
   7.797  0.717E-02  0.358E-02  0.358E-02
   7.799  0.864E-02  0.432E-02  0.432E-02
   7.801  0.251E-02  0.126E-02  0.126E-02
   7.803  0.348E-02  0.174E-02  0.174E-02
   7.805  0.129E-01  0.644E-02  0.644E-02
   7.807  0.759E-02  0.380E-02  0.380E-02
   7.809  0.652E-03  0.326E-03  0.326E-03
   7.811  0.250E-04  0.125E-04  0.125E-04
   7.813  0.904E-03  0.452E-03  0.452E-03
   7.815  0.668E-02  0.334E-02  0.334E-02
   7.817  0.837E-02  0.419E-02  0.419E-02
   7.819  0.837E-02  0.419E-02  0.419E-02
   7.821  0.423E-02  0.212E-02  0.212E-02
   7.823  0.473E-03  0.237E-03  0.237E-03
   7.825  0.344E-02  0.172E-02  0.172E-02
   7.827  0.117E-01  0.584E-02  0.584E-02
   7.829  0.538E-02  0.269E-02  0.269E-02
   7.831  0.335E-03  0.168E-03  0.168E-03
   7.833  0.327E-05  0.163E-05  0.163E-05
   7.835  0.397E-05  0.198E-05  0.198E-05
   7.837  0.567E-05  0.284E-05  0.284E-05
   7.839  0.996E-04  0.498E-04  0.498E-04
   7.841  0.309E-02  0.154E-02  0.154E-02
   7.843  0.141E-01  0.704E-02  0.704E-02
   7.845  0.946E-02  0.473E-02  0.473E-02
   7.847  0.952E-03  0.476E-03  0.476E-03
   7.849  0.123E-02  0.614E-03  0.614E-03
   7.851  0.921E-02  0.460E-02  0.460E-02
   7.853  0.945E-02  0.473E-02  0.473E-02
   7.855  0.131E-02  0.657E-03  0.657E-03
   7.857  0.247E-04  0.123E-04  0.123E-04
   7.859  0.790E-07  0.395E-07  0.395E-07
   7.861  0.573E-05  0.286E-05  0.286E-05
   7.863  0.274E-03  0.137E-03  0.137E-03
   7.865  0.178E-02  0.892E-03  0.892E-03
   7.867  0.203E-02  0.101E-02  0.101E-02
   7.869  0.489E-02  0.245E-02  0.245E-02
   7.871  0.640E-02  0.320E-02  0.320E-02
   7.873  0.232E-02  0.116E-02  0.116E-02
   7.875  0.679E-02  0.339E-02  0.339E-02
   7.877  0.680E-02  0.340E-02  0.340E-02
   7.879  0.106E-01  0.529E-02  0.529E-02
   7.881  0.101E-01  0.507E-02  0.507E-02
   7.883  0.331E-02  0.165E-02  0.165E-02
   7.885  0.593E-03  0.296E-03  0.296E-03
   7.887  0.202E-04  0.101E-04  0.101E-04
   7.889  0.961E-07  0.480E-07  0.480E-07
   7.891  0.633E-10  0.317E-10  0.317E-10
   7.893  0.677E-08  0.338E-08  0.338E-08
   7.895  0.423E-05  0.212E-05  0.212E-05
   7.897  0.358E-03  0.179E-03  0.179E-03
   7.899  0.411E-02  0.205E-02  0.205E-02
   7.901  0.637E-02  0.318E-02  0.318E-02
   7.903  0.142E-02  0.709E-03  0.709E-03
   7.905  0.114E-02  0.572E-03  0.572E-03
   7.907  0.248E-02  0.124E-02  0.124E-02
   7.909  0.856E-02  0.428E-02  0.428E-02
   7.911  0.196E-01  0.981E-02  0.981E-02
   7.913  0.673E-02  0.336E-02  0.336E-02
   7.915  0.327E-03  0.163E-03  0.163E-03
   7.917  0.225E-05  0.112E-05  0.112E-05
   7.919  0.217E-08  0.109E-08  0.109E-08
   7.921  0.293E-12  0.147E-12  0.147E-12
   7.923  0.341E-14  0.170E-14  0.170E-14
   7.925  0.522E-10  0.261E-10  0.261E-10
   7.927  0.108E-06  0.542E-07  0.542E-07
   7.929  0.304E-04  0.152E-04  0.152E-04
   7.931  0.116E-02  0.579E-03  0.579E-03
   7.933  0.596E-02  0.298E-02  0.298E-02
   7.935  0.420E-02  0.210E-02  0.210E-02
   7.937  0.130E-02  0.652E-03  0.652E-03
   7.939  0.230E-02  0.115E-02  0.115E-02
   7.941  0.141E-02  0.706E-03  0.706E-03
   7.943  0.743E-02  0.372E-02  0.372E-02
   7.945  0.117E-01  0.585E-02  0.585E-02
   7.947  0.401E-02  0.200E-02  0.200E-02
   7.949  0.691E-02  0.345E-02  0.345E-02
   7.951  0.414E-02  0.207E-02  0.207E-02
   7.953  0.339E-03  0.169E-03  0.169E-03
   7.955  0.376E-05  0.188E-05  0.188E-05
   7.957  0.312E-07  0.156E-07  0.156E-07
   7.959  0.848E-05  0.424E-05  0.424E-05
   7.961  0.421E-03  0.211E-03  0.211E-03
   7.963  0.387E-02  0.193E-02  0.193E-02
   7.965  0.944E-02  0.472E-02  0.472E-02
   7.967  0.103E-01  0.517E-02  0.517E-02
   7.969  0.123E-01  0.617E-02  0.617E-02
   7.971  0.790E-02  0.395E-02  0.395E-02
   7.973  0.306E-02  0.153E-02  0.153E-02
   7.975  0.638E-02  0.319E-02  0.319E-02
   7.977  0.342E-02  0.171E-02  0.171E-02
   7.979  0.964E-02  0.482E-02  0.482E-02
   7.981  0.163E-01  0.814E-02  0.814E-02
   7.983  0.459E-02  0.230E-02  0.230E-02
   7.985  0.255E-03  0.128E-03  0.128E-03
   7.987  0.223E-02  0.111E-02  0.111E-02
   7.989  0.118E-01  0.591E-02  0.591E-02
   7.991  0.949E-02  0.475E-02  0.475E-02
   7.993  0.208E-02  0.104E-02  0.104E-02
   7.995  0.455E-02  0.227E-02  0.227E-02
   7.997  0.296E-02  0.148E-02  0.148E-02
   7.999  0.262E-03  0.131E-03  0.131E-03
   8.001  0.314E-05  0.157E-05  0.157E-05
   8.003  0.621E-06  0.311E-06  0.311E-06
   8.005  0.109E-03  0.546E-04  0.546E-04
   8.007  0.288E-02  0.144E-02  0.144E-02
   8.009  0.120E-01  0.599E-02  0.599E-02
   8.011  0.815E-02  0.408E-02  0.408E-02
   8.013  0.249E-02  0.125E-02  0.125E-02
   8.015  0.600E-02  0.300E-02  0.300E-02
   8.017  0.867E-02  0.434E-02  0.434E-02
   8.019  0.126E-01  0.631E-02  0.631E-02
   8.021  0.970E-02  0.485E-02  0.485E-02
   8.023  0.117E-02  0.587E-03  0.587E-03
   8.025  0.194E-04  0.969E-05  0.969E-05
   8.027  0.645E-05  0.323E-05  0.323E-05
   8.029  0.466E-03  0.233E-03  0.233E-03
   8.031  0.460E-02  0.230E-02  0.230E-02
   8.033  0.666E-02  0.333E-02  0.333E-02
   8.035  0.642E-02  0.321E-02  0.321E-02
   8.037  0.712E-02  0.356E-02  0.356E-02
   8.039  0.222E-02  0.111E-02  0.111E-02
   8.041  0.455E-02  0.228E-02  0.228E-02
   8.043  0.296E-02  0.148E-02  0.148E-02
   8.045  0.953E-03  0.476E-03  0.476E-03
   8.047  0.249E-02  0.125E-02  0.125E-02
   8.049  0.271E-02  0.135E-02  0.135E-02
   8.051  0.574E-02  0.287E-02  0.287E-02
   8.053  0.278E-02  0.139E-02  0.139E-02
   8.055  0.186E-03  0.928E-04  0.928E-04
   8.057  0.132E-03  0.662E-04  0.662E-04
   8.059  0.354E-02  0.177E-02  0.177E-02
   8.061  0.130E-01  0.649E-02  0.649E-02
   8.063  0.646E-02  0.323E-02  0.323E-02
   8.065  0.137E-02  0.685E-03  0.685E-03
   8.067  0.701E-02  0.351E-02  0.351E-02
   8.069  0.940E-02  0.470E-02  0.470E-02
   8.071  0.571E-02  0.285E-02  0.285E-02
   8.073  0.285E-02  0.143E-02  0.143E-02
   8.075  0.667E-02  0.333E-02  0.333E-02
   8.077  0.349E-02  0.175E-02  0.175E-02
   8.079  0.249E-03  0.125E-03  0.125E-03
   8.081  0.240E-05  0.120E-05  0.120E-05
   8.083  0.314E-08  0.157E-08  0.157E-08
   8.085  0.772E-08  0.386E-08  0.386E-08
   8.087  0.354E-05  0.177E-05  0.177E-05
   8.089  0.220E-03  0.110E-03  0.110E-03
   8.091  0.185E-02  0.927E-03  0.927E-03
   8.093  0.238E-02  0.119E-02  0.119E-02
   8.095  0.354E-02  0.177E-02  0.177E-02
   8.097  0.516E-02  0.258E-02  0.258E-02
   8.099  0.132E-02  0.661E-03  0.661E-03
   8.101  0.349E-02  0.174E-02  0.174E-02
   8.103  0.159E-01  0.797E-02  0.797E-02
   8.105  0.234E-01  0.117E-01  0.117E-01
   8.107  0.636E-02  0.318E-02  0.318E-02
   8.109  0.252E-03  0.126E-03  0.126E-03
   8.111  0.141E-05  0.704E-06  0.704E-06
   8.113  0.289E-05  0.145E-05  0.145E-05
   8.115  0.280E-03  0.140E-03  0.140E-03
   8.117  0.366E-02  0.183E-02  0.183E-02
   8.119  0.649E-02  0.324E-02  0.324E-02
   8.121  0.156E-02  0.778E-03  0.778E-03
   8.123  0.652E-04  0.326E-04  0.326E-04
   8.125  0.488E-03  0.244E-03  0.244E-03
   8.127  0.219E-02  0.109E-02  0.109E-02
   8.129  0.149E-02  0.746E-03  0.746E-03
   8.131  0.177E-02  0.886E-03  0.886E-03
   8.133  0.240E-02  0.120E-02  0.120E-02
   8.135  0.261E-02  0.131E-02  0.131E-02
   8.137  0.534E-02  0.267E-02  0.267E-02
   8.139  0.220E-02  0.110E-02  0.110E-02
   8.141  0.560E-02  0.280E-02  0.280E-02
   8.143  0.196E-01  0.979E-02  0.979E-02
   8.145  0.241E-01  0.121E-01  0.121E-01
   8.147  0.113E-01  0.566E-02  0.566E-02
   8.149  0.194E-01  0.972E-02  0.972E-02
   8.151  0.168E-01  0.840E-02  0.840E-02
   8.153  0.296E-02  0.148E-02  0.148E-02
   8.155  0.277E-02  0.138E-02  0.138E-02
   8.157  0.102E-01  0.509E-02  0.509E-02
   8.159  0.832E-02  0.416E-02  0.416E-02
   8.161  0.736E-02  0.368E-02  0.368E-02
   8.163  0.293E-02  0.147E-02  0.147E-02
   8.165  0.358E-03  0.179E-03  0.179E-03
   8.167  0.342E-02  0.171E-02  0.171E-02
   8.169  0.112E-01  0.560E-02  0.560E-02
   8.171  0.117E-01  0.584E-02  0.584E-02
   8.173  0.691E-02  0.345E-02  0.345E-02
   8.175  0.125E-02  0.623E-03  0.623E-03
   8.177  0.367E-04  0.183E-04  0.183E-04
   8.179  0.163E-04  0.817E-05  0.817E-05
   8.181  0.849E-03  0.425E-03  0.425E-03
   8.183  0.640E-02  0.320E-02  0.320E-02
   8.185  0.913E-02  0.456E-02  0.456E-02
   8.187  0.711E-02  0.355E-02  0.355E-02
   8.189  0.110E-01  0.549E-02  0.549E-02
   8.191  0.467E-02  0.234E-02  0.234E-02
   8.193  0.101E-02  0.504E-03  0.504E-03
   8.195  0.673E-02  0.336E-02  0.336E-02
   8.197  0.165E-01  0.823E-02  0.823E-02
   8.199  0.100E-01  0.502E-02  0.502E-02
   8.201  0.967E-02  0.484E-02  0.484E-02
   8.203  0.147E-01  0.736E-02  0.736E-02
   8.205  0.700E-02  0.350E-02  0.350E-02
   8.207  0.505E-02  0.253E-02  0.253E-02
   8.209  0.568E-02  0.284E-02  0.284E-02
   8.211  0.132E-02  0.659E-03  0.659E-03
   8.213  0.465E-04  0.232E-04  0.232E-04
   8.215  0.252E-03  0.126E-03  0.126E-03
   8.217  0.199E-02  0.993E-03  0.993E-03
   8.219  0.213E-02  0.106E-02  0.106E-02
   8.221  0.813E-03  0.406E-03  0.406E-03
   8.223  0.535E-02  0.268E-02  0.268E-02
   8.225  0.796E-02  0.398E-02  0.398E-02
   8.227  0.422E-02  0.211E-02  0.211E-02
   8.229  0.316E-02  0.158E-02  0.158E-02
   8.231  0.515E-03  0.258E-03  0.258E-03
   8.233  0.161E-02  0.806E-03  0.806E-03
   8.235  0.110E-01  0.550E-02  0.550E-02
   8.237  0.104E-01  0.522E-02  0.522E-02
   8.239  0.278E-02  0.139E-02  0.139E-02
   8.241  0.701E-02  0.350E-02  0.350E-02
   8.243  0.965E-02  0.482E-02  0.482E-02
   8.245  0.156E-01  0.779E-02  0.779E-02
   8.247  0.153E-01  0.763E-02  0.763E-02
   8.249  0.156E-01  0.781E-02  0.781E-02
   8.251  0.120E-01  0.600E-02  0.600E-02
   8.253  0.321E-02  0.161E-02  0.161E-02
   8.255  0.355E-02  0.178E-02  0.178E-02
   8.257  0.999E-03  0.499E-03  0.499E-03
   8.259  0.383E-04  0.191E-04  0.191E-04
   8.261  0.199E-06  0.994E-07  0.994E-07
   8.263  0.140E-09  0.698E-10  0.698E-10
   8.265  0.133E-13  0.663E-14  0.663E-14
   8.267  0.185E-14  0.923E-15  0.923E-15
   8.269  0.385E-10  0.193E-10  0.193E-10
   8.271  0.111E-06  0.553E-07  0.553E-07
   8.273  0.436E-04  0.218E-04  0.218E-04
   8.275  0.237E-02  0.118E-02  0.118E-02
   8.277  0.176E-01  0.882E-02  0.882E-02
   8.279  0.181E-01  0.903E-02  0.903E-02
   8.281  0.288E-02  0.144E-02  0.144E-02
   8.283  0.624E-02  0.312E-02  0.312E-02
   8.285  0.154E-01  0.768E-02  0.768E-02
   8.287  0.521E-02  0.261E-02  0.261E-02
   8.289  0.243E-03  0.121E-03  0.121E-03
   8.291  0.619E-04  0.309E-04  0.309E-04
   8.293  0.242E-02  0.121E-02  0.121E-02
   8.295  0.132E-01  0.658E-02  0.658E-02
   8.297  0.968E-02  0.484E-02  0.484E-02
   8.299  0.981E-03  0.490E-03  0.490E-03
   8.301  0.580E-03  0.290E-03  0.290E-03
   8.303  0.258E-02  0.129E-02  0.129E-02
   8.305  0.252E-02  0.126E-02  0.126E-02
   8.307  0.706E-02  0.353E-02  0.353E-02
   8.309  0.204E-01  0.102E-01  0.102E-01
   8.311  0.188E-01  0.938E-02  0.938E-02
   8.313  0.338E-02  0.169E-02  0.169E-02
   8.315  0.136E-03  0.678E-04  0.678E-04
   8.317  0.820E-03  0.410E-03  0.410E-03
   8.319  0.314E-02  0.157E-02  0.157E-02
   8.321  0.163E-02  0.813E-03  0.813E-03
   8.323  0.114E-03  0.570E-04  0.570E-04
   8.325  0.282E-04  0.141E-04  0.141E-04
   8.327  0.740E-03  0.370E-03  0.370E-03
   8.329  0.274E-02  0.137E-02  0.137E-02
   8.331  0.160E-02  0.799E-03  0.799E-03
   8.333  0.473E-02  0.237E-02  0.237E-02
   8.335  0.130E-01  0.652E-02  0.652E-02
   8.337  0.953E-02  0.476E-02  0.476E-02
   8.339  0.142E-01  0.708E-02  0.708E-02
   8.341  0.982E-02  0.491E-02  0.491E-02
   8.343  0.110E-01  0.548E-02  0.548E-02
   8.345  0.230E-01  0.115E-01  0.115E-01
   8.347  0.119E-01  0.595E-02  0.595E-02
   8.349  0.110E-02  0.551E-03  0.551E-03
   8.351  0.152E-04  0.758E-05  0.758E-05
   8.353  0.183E-04  0.913E-05  0.913E-05
   8.355  0.620E-03  0.310E-03  0.310E-03
   8.357  0.286E-02  0.143E-02  0.143E-02
   8.359  0.182E-02  0.912E-03  0.912E-03
   8.361  0.172E-02  0.862E-03  0.862E-03
   8.363  0.933E-02  0.467E-02  0.467E-02
   8.365  0.115E-01  0.574E-02  0.574E-02
   8.367  0.582E-02  0.291E-02  0.291E-02
   8.369  0.374E-02  0.187E-02  0.187E-02
   8.371  0.583E-03  0.292E-03  0.292E-03
   8.373  0.127E-04  0.633E-05  0.633E-05
   8.375  0.468E-06  0.234E-06  0.234E-06
   8.377  0.951E-04  0.476E-04  0.476E-04
   8.379  0.284E-02  0.142E-02  0.142E-02
   8.381  0.120E-01  0.599E-02  0.599E-02
   8.383  0.143E-01  0.715E-02  0.715E-02
   8.385  0.261E-01  0.130E-01  0.130E-01
   8.387  0.169E-01  0.846E-02  0.846E-02
   8.389  0.284E-02  0.142E-02  0.142E-02
   8.391  0.191E-03  0.955E-04  0.955E-04
   8.393  0.220E-02  0.110E-02  0.110E-02
   8.395  0.133E-01  0.666E-02  0.666E-02
   8.397  0.115E-01  0.576E-02  0.576E-02
   8.399  0.822E-02  0.411E-02  0.411E-02
   8.401  0.159E-01  0.794E-02  0.794E-02
   8.403  0.675E-02  0.338E-02  0.338E-02
   8.405  0.141E-02  0.703E-03  0.703E-03
   8.407  0.286E-02  0.143E-02  0.143E-02
   8.409  0.154E-02  0.772E-03  0.772E-03
   8.411  0.630E-02  0.315E-02  0.315E-02
   8.413  0.143E-01  0.717E-02  0.717E-02
   8.415  0.464E-02  0.232E-02  0.232E-02
   8.417  0.255E-02  0.128E-02  0.128E-02
   8.419  0.195E-01  0.977E-02  0.977E-02
   8.421  0.346E-01  0.173E-01  0.173E-01
   8.423  0.238E-01  0.119E-01  0.119E-01
   8.425  0.782E-02  0.391E-02  0.391E-02
   8.427  0.711E-02  0.355E-02  0.355E-02
   8.429  0.475E-02  0.237E-02  0.237E-02
   8.431  0.383E-02  0.192E-02  0.192E-02
   8.433  0.917E-02  0.458E-02  0.458E-02
   8.435  0.168E-01  0.842E-02  0.842E-02
   8.437  0.145E-01  0.724E-02  0.724E-02
   8.439  0.472E-02  0.236E-02  0.236E-02
   8.441  0.214E-02  0.107E-02  0.107E-02
   8.443  0.109E-01  0.546E-02  0.546E-02
   8.445  0.223E-01  0.112E-01  0.112E-01
   8.447  0.105E-01  0.524E-02  0.524E-02
   8.449  0.914E-03  0.457E-03  0.457E-03
   8.451  0.360E-04  0.180E-04  0.180E-04
   8.453  0.995E-03  0.498E-03  0.498E-03
   8.455  0.606E-02  0.303E-02  0.303E-02
   8.457  0.506E-02  0.253E-02  0.253E-02
   8.459  0.324E-02  0.162E-02  0.162E-02
   8.461  0.126E-01  0.630E-02  0.630E-02
   8.463  0.799E-02  0.399E-02  0.399E-02
   8.465  0.793E-03  0.396E-03  0.396E-03
   8.467  0.176E-02  0.879E-03  0.879E-03
   8.469  0.660E-02  0.330E-02  0.330E-02
   8.471  0.742E-02  0.371E-02  0.371E-02
   8.473  0.161E-02  0.805E-03  0.805E-03
   8.475  0.509E-04  0.254E-04  0.254E-04
   8.477  0.137E-05  0.685E-06  0.685E-06
   8.479  0.115E-03  0.575E-04  0.575E-04
   8.481  0.174E-02  0.870E-03  0.870E-03
   8.483  0.983E-02  0.491E-02  0.491E-02
   8.485  0.395E-01  0.198E-01  0.198E-01
   8.487  0.440E-01  0.220E-01  0.220E-01
   8.489  0.286E-01  0.143E-01  0.143E-01
   8.491  0.205E-01  0.103E-01  0.103E-01
   8.493  0.250E-01  0.125E-01  0.125E-01
   8.495  0.265E-01  0.132E-01  0.132E-01
   8.497  0.169E-01  0.847E-02  0.847E-02
   8.499  0.956E-02  0.478E-02  0.478E-02
   8.501  0.175E-01  0.875E-02  0.875E-02
   8.503  0.255E-01  0.127E-01  0.127E-01
   8.505  0.164E-01  0.822E-02  0.822E-02
   8.507  0.121E-01  0.606E-02  0.606E-02
   8.509  0.107E-01  0.533E-02  0.533E-02
   8.511  0.140E-01  0.702E-02  0.702E-02
   8.513  0.526E-02  0.263E-02  0.263E-02
   8.515  0.315E-02  0.158E-02  0.158E-02
   8.517  0.910E-02  0.455E-02  0.455E-02
   8.519  0.546E-02  0.273E-02  0.273E-02
   8.521  0.113E-01  0.565E-02  0.565E-02
   8.523  0.103E-01  0.516E-02  0.516E-02
   8.525  0.133E-02  0.663E-03  0.663E-03
   8.527  0.107E-02  0.535E-03  0.535E-03
   8.529  0.881E-02  0.441E-02  0.441E-02
   8.531  0.224E-01  0.112E-01  0.112E-01
   8.533  0.302E-01  0.151E-01  0.151E-01
   8.535  0.197E-01  0.987E-02  0.987E-02
   8.537  0.650E-02  0.325E-02  0.325E-02
   8.539  0.170E-01  0.851E-02  0.851E-02
   8.541  0.135E-01  0.676E-02  0.676E-02
   8.543  0.127E-01  0.635E-02  0.635E-02
   8.545  0.227E-01  0.114E-01  0.114E-01
   8.547  0.256E-01  0.128E-01  0.128E-01
   8.549  0.224E-01  0.112E-01  0.112E-01
   8.551  0.813E-02  0.406E-02  0.406E-02
   8.553  0.888E-02  0.444E-02  0.444E-02
   8.555  0.116E-01  0.581E-02  0.581E-02
   8.557  0.106E-01  0.531E-02  0.531E-02
   8.559  0.403E-02  0.201E-02  0.201E-02
   8.561  0.103E-01  0.514E-02  0.514E-02
   8.563  0.184E-01  0.919E-02  0.919E-02
   8.565  0.123E-01  0.617E-02  0.617E-02
   8.567  0.140E-01  0.701E-02  0.701E-02
   8.569  0.796E-02  0.398E-02  0.398E-02
   8.571  0.876E-02  0.438E-02  0.438E-02
   8.573  0.686E-02  0.343E-02  0.343E-02
   8.575  0.513E-02  0.256E-02  0.256E-02
   8.577  0.258E-01  0.129E-01  0.129E-01
   8.579  0.335E-01  0.167E-01  0.167E-01
   8.581  0.167E-01  0.836E-02  0.836E-02
   8.583  0.328E-01  0.164E-01  0.164E-01
   8.585  0.343E-01  0.172E-01  0.172E-01
   8.587  0.121E-01  0.604E-02  0.604E-02
   8.589  0.788E-02  0.394E-02  0.394E-02
   8.591  0.644E-02  0.322E-02  0.322E-02
   8.593  0.137E-01  0.683E-02  0.683E-02
   8.595  0.211E-01  0.106E-01  0.106E-01
   8.597  0.931E-02  0.466E-02  0.466E-02
   8.599  0.204E-02  0.102E-02  0.102E-02
   8.601  0.776E-02  0.388E-02  0.388E-02
   8.603  0.856E-02  0.428E-02  0.428E-02
   8.605  0.134E-02  0.671E-03  0.671E-03
   8.607  0.164E-02  0.819E-03  0.819E-03
   8.609  0.164E-01  0.818E-02  0.818E-02
   8.611  0.636E-01  0.318E-01  0.318E-01
   8.613  0.714E-01  0.357E-01  0.357E-01
   8.615  0.426E-01  0.213E-01  0.213E-01
   8.617  0.390E-01  0.195E-01  0.195E-01
   8.619  0.382E-01  0.191E-01  0.191E-01
   8.621  0.515E-01  0.257E-01  0.257E-01
   8.623  0.622E-01  0.311E-01  0.311E-01
   8.625  0.165E-01  0.823E-02  0.823E-02
   8.627  0.118E-01  0.590E-02  0.590E-02
   8.629  0.373E-01  0.186E-01  0.186E-01
   8.631  0.285E-01  0.142E-01  0.142E-01
   8.633  0.155E-01  0.777E-02  0.777E-02
   8.635  0.673E-02  0.336E-02  0.336E-02
   8.637  0.188E-01  0.942E-02  0.942E-02
   8.639  0.209E-01  0.105E-01  0.105E-01
   8.641  0.108E-01  0.540E-02  0.540E-02
   8.643  0.199E-01  0.994E-02  0.994E-02
   8.645  0.408E-01  0.204E-01  0.204E-01
   8.647  0.412E-01  0.206E-01  0.206E-01
   8.649  0.174E-01  0.872E-02  0.872E-02
   8.651  0.473E-02  0.237E-02  0.237E-02
   8.653  0.218E-01  0.109E-01  0.109E-01
   8.655  0.516E-01  0.258E-01  0.258E-01
   8.657  0.600E-01  0.300E-01  0.300E-01
   8.659  0.317E-01  0.158E-01  0.158E-01
   8.661  0.213E-01  0.106E-01  0.106E-01
   8.663  0.798E-02  0.399E-02  0.399E-02
   8.665  0.153E-02  0.764E-03  0.764E-03
   8.667  0.156E-01  0.781E-02  0.781E-02
   8.669  0.372E-01  0.186E-01  0.186E-01
   8.671  0.218E-01  0.109E-01  0.109E-01
   8.673  0.974E-02  0.487E-02  0.487E-02
   8.675  0.221E-01  0.110E-01  0.110E-01
   8.677  0.231E-01  0.116E-01  0.116E-01
   8.679  0.289E-01  0.144E-01  0.144E-01
   8.681  0.494E-01  0.247E-01  0.247E-01
   8.683  0.649E-01  0.325E-01  0.325E-01
   8.685  0.387E-01  0.193E-01  0.193E-01
   8.687  0.109E-01  0.544E-02  0.544E-02
   8.689  0.261E-01  0.130E-01  0.130E-01
   8.691  0.401E-01  0.201E-01  0.201E-01
   8.693  0.197E-01  0.985E-02  0.985E-02
   8.695  0.242E-02  0.121E-02  0.121E-02
   8.697  0.414E-02  0.207E-02  0.207E-02
   8.699  0.233E-01  0.116E-01  0.116E-01
   8.701  0.549E-01  0.274E-01  0.274E-01
   8.703  0.577E-01  0.288E-01  0.288E-01
   8.705  0.621E-01  0.310E-01  0.310E-01
   8.707  0.223E-01  0.111E-01  0.111E-01
   8.709  0.414E-01  0.207E-01  0.207E-01
   8.711  0.448E-01  0.224E-01  0.224E-01
   8.713  0.988E-02  0.494E-02  0.494E-02
   8.715  0.374E-01  0.187E-01  0.187E-01
   8.717  0.106E+00  0.531E-01  0.531E-01
   8.719  0.871E-01  0.435E-01  0.435E-01
   8.721  0.116E+00  0.580E-01  0.580E-01
   8.723  0.981E-01  0.491E-01  0.491E-01
   8.725  0.261E-01  0.130E-01  0.130E-01
   8.727  0.489E-02  0.245E-02  0.245E-02
   8.729  0.446E-03  0.223E-03  0.223E-03
   8.731  0.123E-02  0.616E-03  0.616E-03
   8.733  0.470E-02  0.235E-02  0.235E-02
   8.735  0.246E-02  0.123E-02  0.123E-02
   8.737  0.110E-02  0.552E-03  0.552E-03
   8.739  0.568E-02  0.284E-02  0.284E-02
   8.741  0.482E-02  0.241E-02  0.241E-02
   8.743  0.640E-03  0.320E-03  0.320E-03
   8.745  0.982E-03  0.491E-03  0.491E-03
   8.747  0.207E-02  0.104E-02  0.104E-02
   8.749  0.138E-02  0.691E-03  0.691E-03
   8.751  0.385E-02  0.192E-02  0.192E-02
   8.753  0.619E-02  0.309E-02  0.309E-02
   8.755  0.929E-02  0.465E-02  0.465E-02
   8.757  0.648E-02  0.324E-02  0.324E-02
   8.759  0.145E-02  0.725E-03  0.725E-03
   8.761  0.474E-02  0.237E-02  0.237E-02
   8.763  0.498E-02  0.249E-02  0.249E-02
   8.765  0.502E-02  0.251E-02  0.251E-02
   8.767  0.606E-02  0.303E-02  0.303E-02
   8.769  0.132E-02  0.658E-03  0.658E-03
   8.771  0.760E-03  0.380E-03  0.380E-03
   8.773  0.346E-02  0.173E-02  0.173E-02
   8.775  0.373E-02  0.186E-02  0.186E-02
   8.777  0.690E-02  0.345E-02  0.345E-02
   8.779  0.402E-02  0.201E-02  0.201E-02
   8.781  0.330E-03  0.165E-03  0.165E-03
   8.783  0.377E-05  0.189E-05  0.189E-05
   8.785  0.112E-04  0.560E-05  0.560E-05
   8.787  0.293E-03  0.146E-03  0.146E-03
   8.789  0.104E-02  0.518E-03  0.518E-03
   8.791  0.504E-03  0.252E-03  0.252E-03
   8.793  0.411E-03  0.206E-03  0.206E-03
   8.795  0.254E-02  0.127E-02  0.127E-02
   8.797  0.231E-02  0.115E-02  0.115E-02
   8.799  0.284E-03  0.142E-03  0.142E-03
   8.801  0.153E-03  0.766E-04  0.766E-04
   8.803  0.332E-02  0.166E-02  0.166E-02
   8.805  0.101E-01  0.503E-02  0.503E-02
   8.807  0.414E-02  0.207E-02  0.207E-02
   8.809  0.231E-03  0.116E-03  0.116E-03
   8.811  0.812E-05  0.406E-05  0.406E-05
   8.813  0.223E-03  0.111E-03  0.111E-03
   8.815  0.163E-02  0.816E-03  0.816E-03
   8.817  0.521E-02  0.261E-02  0.261E-02
   8.819  0.619E-02  0.310E-02  0.310E-02
   8.821  0.391E-02  0.196E-02  0.196E-02
   8.823  0.128E-02  0.639E-03  0.639E-03
   8.825  0.916E-04  0.458E-04  0.458E-04
   8.827  0.981E-06  0.491E-06  0.491E-06
   8.829  0.434E-06  0.217E-06  0.217E-06
   8.831  0.533E-04  0.266E-04  0.266E-04
   8.833  0.889E-03  0.444E-03  0.444E-03
   8.835  0.201E-02  0.100E-02  0.100E-02
   8.837  0.613E-03  0.307E-03  0.307E-03
   8.839  0.587E-04  0.294E-04  0.294E-04
   8.841  0.512E-03  0.256E-03  0.256E-03
   8.843  0.178E-02  0.889E-03  0.889E-03
   8.845  0.224E-02  0.112E-02  0.112E-02
   8.847  0.699E-03  0.349E-03  0.349E-03
   8.849  0.186E-02  0.928E-03  0.928E-03
   8.851  0.501E-02  0.251E-02  0.251E-02
   8.853  0.186E-02  0.928E-03  0.928E-03
   8.855  0.964E-04  0.482E-04  0.482E-04
   8.857  0.271E-03  0.136E-03  0.136E-03
   8.859  0.289E-02  0.144E-02  0.144E-02
   8.861  0.417E-02  0.209E-02  0.209E-02
   8.863  0.101E-02  0.504E-03  0.504E-03
   8.865  0.159E-02  0.793E-03  0.793E-03
   8.867  0.180E-02  0.899E-03  0.899E-03
   8.869  0.140E-02  0.698E-03  0.698E-03
   8.871  0.226E-02  0.113E-02  0.113E-02
   8.873  0.644E-03  0.322E-03  0.322E-03
   8.875  0.261E-04  0.131E-04  0.131E-04
   8.877  0.148E-06  0.742E-07  0.742E-07
   8.879  0.116E-09  0.582E-10  0.582E-10
   8.881  0.120E-11  0.598E-12  0.598E-12
   8.883  0.468E-08  0.234E-08  0.234E-08
   8.885  0.250E-05  0.125E-05  0.125E-05
   8.887  0.181E-03  0.905E-04  0.905E-04
   8.889  0.177E-02  0.886E-03  0.886E-03
   8.891  0.235E-02  0.118E-02  0.118E-02
   8.893  0.430E-03  0.215E-03  0.215E-03
   8.895  0.369E-03  0.184E-03  0.184E-03
   8.897  0.331E-02  0.165E-02  0.165E-02
   8.899  0.835E-02  0.417E-02  0.417E-02
   8.901  0.562E-02  0.281E-02  0.281E-02
   8.903  0.249E-02  0.124E-02  0.124E-02
   8.905  0.430E-02  0.215E-02  0.215E-02
   8.907  0.180E-02  0.902E-03  0.902E-03
   8.909  0.104E-03  0.519E-04  0.519E-04
   8.911  0.807E-06  0.404E-06  0.404E-06
   8.913  0.851E-09  0.425E-09  0.425E-09
   8.915  0.131E-11  0.656E-12  0.656E-12
   8.917  0.364E-08  0.182E-08  0.182E-08
   8.919  0.152E-05  0.762E-06  0.762E-06
   8.921  0.891E-04  0.445E-04  0.445E-04
   8.923  0.774E-03  0.387E-03  0.387E-03
   8.925  0.114E-02  0.568E-03  0.568E-03
   8.927  0.317E-03  0.159E-03  0.159E-03
   8.929  0.245E-04  0.122E-04  0.122E-04
   8.931  0.352E-03  0.176E-03  0.176E-03
   8.933  0.197E-02  0.985E-03  0.985E-03
   8.935  0.149E-02  0.746E-03  0.746E-03
   8.937  0.153E-03  0.765E-04  0.765E-04
   8.939  0.212E-05  0.106E-05  0.106E-05
   8.941  0.400E-08  0.200E-08  0.200E-08
   8.943  0.183E-07  0.915E-08  0.915E-08
   8.945  0.529E-05  0.265E-05  0.265E-05
   8.947  0.287E-03  0.143E-03  0.143E-03
   8.949  0.330E-02  0.165E-02  0.165E-02
   8.951  0.814E-02  0.407E-02  0.407E-02
   8.953  0.431E-02  0.216E-02  0.216E-02
   8.955  0.438E-03  0.219E-03  0.219E-03
   8.957  0.712E-05  0.356E-05  0.356E-05
   8.959  0.166E-07  0.829E-08  0.829E-08
   8.961  0.772E-11  0.386E-11  0.386E-11
   8.963  0.789E-08  0.394E-08  0.394E-08
   8.965  0.350E-05  0.175E-05  0.175E-05
   8.967  0.210E-03  0.105E-03  0.105E-03
   8.969  0.171E-02  0.857E-03  0.857E-03
   8.971  0.206E-02  0.103E-02  0.103E-02
   8.973  0.795E-03  0.398E-03  0.398E-03
   8.975  0.412E-03  0.206E-03  0.206E-03
   8.977  0.153E-02  0.764E-03  0.764E-03
   8.979  0.223E-02  0.111E-02  0.111E-02
   8.981  0.453E-03  0.227E-03  0.227E-03
   8.983  0.255E-03  0.128E-03  0.128E-03
   8.985  0.150E-02  0.749E-03  0.749E-03
   8.987  0.125E-02  0.624E-03  0.624E-03
   8.989  0.150E-03  0.750E-04  0.750E-04
   8.991  0.134E-03  0.672E-04  0.672E-04
   8.993  0.301E-03  0.151E-03  0.151E-03
   8.995  0.113E-03  0.565E-04  0.565E-04
   8.997  0.143E-03  0.716E-04  0.716E-04
   8.999  0.187E-02  0.934E-03  0.934E-03
   9.001  0.363E-02  0.182E-02  0.182E-02
   9.003  0.318E-02  0.159E-02  0.159E-02
   9.005  0.419E-02  0.210E-02  0.210E-02
   9.007  0.269E-02  0.134E-02  0.134E-02
   9.009  0.210E-02  0.105E-02  0.105E-02
   9.011  0.331E-03  0.166E-03  0.166E-03
   9.013  0.745E-05  0.373E-05  0.373E-05
   9.015  0.841E-05  0.421E-05  0.421E-05
   9.017  0.332E-04  0.166E-04  0.166E-04
   9.019  0.183E-04  0.915E-05  0.915E-05
   9.021  0.430E-05  0.215E-05  0.215E-05
   9.023  0.494E-05  0.247E-05  0.247E-05
   9.025  0.129E-04  0.647E-05  0.647E-05
   9.027  0.926E-05  0.463E-05  0.463E-05
   9.029  0.411E-05  0.205E-05  0.205E-05
   9.031  0.244E-04  0.122E-04  0.122E-04
   9.033  0.252E-04  0.126E-04  0.126E-04
   9.035  0.353E-05  0.177E-05  0.177E-05
   9.037  0.132E-05  0.658E-06  0.658E-06
   9.039  0.228E-04  0.114E-04  0.114E-04
   9.041  0.565E-04  0.282E-04  0.282E-04
   9.043  0.241E-04  0.121E-04  0.121E-04
   9.045  0.272E-03  0.136E-03  0.136E-03
   9.047  0.198E-02  0.989E-03  0.989E-03
   9.049  0.321E-02  0.160E-02  0.160E-02
   9.051  0.350E-02  0.175E-02  0.175E-02
   9.053  0.108E-02  0.540E-03  0.540E-03
   9.055  0.563E-04  0.282E-04  0.282E-04
   9.057  0.661E-04  0.331E-04  0.331E-04
   9.059  0.137E-02  0.683E-03  0.683E-03
   9.061  0.385E-02  0.192E-02  0.192E-02
   9.063  0.148E-02  0.741E-03  0.741E-03
   9.065  0.314E-03  0.157E-03  0.157E-03
   9.067  0.156E-02  0.781E-03  0.781E-03
   9.069  0.195E-02  0.977E-03  0.977E-03
   9.071  0.404E-03  0.202E-03  0.202E-03
   9.073  0.824E-03  0.412E-03  0.412E-03
   9.075  0.164E-02  0.819E-03  0.819E-03
   9.077  0.446E-03  0.223E-03  0.223E-03
   9.079  0.243E-04  0.121E-04  0.121E-04
   9.081  0.971E-04  0.485E-04  0.485E-04
   9.083  0.162E-03  0.809E-04  0.809E-04
   9.085  0.558E-04  0.279E-04  0.279E-04
   9.087  0.573E-03  0.287E-03  0.287E-03
   9.089  0.230E-02  0.115E-02  0.115E-02
   9.091  0.125E-02  0.627E-03  0.627E-03
   9.093  0.924E-04  0.462E-04  0.462E-04
   9.095  0.938E-06  0.469E-06  0.469E-06
   9.097  0.508E-05  0.254E-05  0.254E-05
   9.099  0.264E-03  0.132E-03  0.132E-03
   9.101  0.217E-02  0.108E-02  0.108E-02
   9.103  0.263E-02  0.131E-02  0.131E-02
   9.105  0.448E-03  0.224E-03  0.224E-03
   9.107  0.105E-04  0.525E-05  0.525E-05
   9.109  0.335E-07  0.167E-07  0.167E-07
   9.111  0.195E-10  0.975E-11  0.975E-11
   9.113  0.154E-07  0.768E-08  0.768E-08
   9.115  0.635E-05  0.317E-05  0.317E-05
   9.117  0.355E-03  0.178E-03  0.178E-03
   9.119  0.270E-02  0.135E-02  0.135E-02
   9.121  0.291E-02  0.146E-02  0.146E-02
   9.123  0.647E-03  0.324E-03  0.324E-03
   9.125  0.669E-04  0.334E-04  0.334E-04
   9.127  0.322E-05  0.161E-05  0.161E-05
   9.129  0.120E-03  0.600E-04  0.600E-04
   9.131  0.141E-02  0.704E-03  0.704E-03
   9.133  0.224E-02  0.112E-02  0.112E-02
   9.135  0.481E-03  0.240E-03  0.240E-03
   9.137  0.140E-04  0.699E-05  0.699E-05
   9.139  0.562E-07  0.281E-07  0.281E-07
   9.141  0.521E-06  0.261E-06  0.261E-06
   9.143  0.314E-04  0.157E-04  0.157E-04
   9.145  0.256E-03  0.128E-03  0.128E-03
   9.147  0.282E-03  0.141E-03  0.141E-03
   9.149  0.437E-04  0.219E-04  0.219E-04
   9.151  0.136E-03  0.681E-04  0.681E-04
   9.153  0.154E-02  0.768E-03  0.768E-03
   9.155  0.257E-02  0.128E-02  0.128E-02
   9.157  0.203E-02  0.101E-02  0.101E-02
   9.159  0.147E-02  0.735E-03  0.735E-03
   9.161  0.187E-03  0.935E-04  0.935E-04
   9.163  0.493E-04  0.246E-04  0.246E-04
   9.165  0.725E-03  0.362E-03  0.362E-03
   9.167  0.155E-02  0.773E-03  0.773E-03
   9.169  0.487E-03  0.244E-03  0.244E-03
   9.171  0.336E-03  0.168E-03  0.168E-03
   9.173  0.367E-03  0.184E-03  0.184E-03
   9.175  0.864E-03  0.432E-03  0.432E-03
   9.177  0.245E-02  0.123E-02  0.123E-02
   9.179  0.206E-02  0.103E-02  0.103E-02
   9.181  0.315E-02  0.158E-02  0.158E-02
   9.183  0.117E-02  0.584E-03  0.584E-03
   9.185  0.596E-04  0.298E-04  0.298E-04
   9.187  0.411E-06  0.206E-06  0.206E-06
   9.189  0.384E-09  0.192E-09  0.192E-09
   9.191  0.272E-12  0.136E-12  0.136E-12
   9.193  0.879E-09  0.439E-09  0.439E-09
   9.195  0.467E-06  0.234E-06  0.234E-06
   9.197  0.336E-04  0.168E-04  0.168E-04
   9.199  0.328E-03  0.164E-03  0.164E-03
   9.201  0.432E-03  0.216E-03  0.216E-03
   9.203  0.148E-03  0.740E-04  0.740E-04
   9.205  0.106E-02  0.530E-03  0.530E-03
   9.207  0.214E-02  0.107E-02  0.107E-02
   9.209  0.585E-03  0.293E-03  0.293E-03
   9.211  0.217E-04  0.108E-04  0.108E-04
   9.213  0.109E-06  0.543E-07  0.543E-07
   9.215  0.249E-09  0.125E-09  0.125E-09
   9.217  0.214E-06  0.107E-06  0.107E-06
   9.219  0.353E-04  0.177E-04  0.177E-04
   9.221  0.788E-03  0.394E-03  0.394E-03
   9.223  0.238E-02  0.119E-02  0.119E-02
   9.225  0.973E-03  0.486E-03  0.486E-03
   9.227  0.698E-04  0.349E-04  0.349E-04
   9.229  0.259E-03  0.130E-03  0.130E-03
   9.231  0.568E-03  0.284E-03  0.284E-03
   9.233  0.168E-03  0.842E-04  0.842E-04
   9.235  0.676E-05  0.338E-05  0.338E-05
   9.237  0.474E-06  0.237E-06  0.237E-06
   9.239  0.618E-04  0.309E-04  0.309E-04
   9.241  0.126E-02  0.629E-03  0.629E-03
   9.243  0.395E-02  0.198E-02  0.198E-02
   9.245  0.207E-02  0.104E-02  0.104E-02
   9.247  0.185E-03  0.926E-04  0.926E-04
   9.249  0.265E-05  0.132E-05  0.132E-05
   9.251  0.940E-08  0.470E-08  0.470E-08
   9.253  0.196E-05  0.982E-06  0.982E-06
   9.255  0.141E-03  0.703E-04  0.703E-04
   9.257  0.151E-02  0.753E-03  0.753E-03
   9.259  0.287E-02  0.143E-02  0.143E-02
   9.261  0.127E-02  0.636E-03  0.636E-03
   9.263  0.704E-03  0.352E-03  0.352E-03
   9.265  0.384E-03  0.192E-03  0.192E-03
   9.267  0.177E-03  0.883E-04  0.883E-04
   9.269  0.150E-02  0.752E-03  0.752E-03
   9.271  0.211E-02  0.106E-02  0.106E-02
   9.273  0.401E-03  0.201E-03  0.201E-03
   9.275  0.103E-04  0.516E-05  0.516E-05
   9.277  0.359E-07  0.179E-07  0.179E-07
   9.279  0.169E-10  0.845E-11  0.845E-11
   9.281  0.108E-14  0.539E-15  0.539E-15
   9.283  0.930E-20  0.465E-20  0.465E-20
   9.285  0.000E+00  0.000E+00  0.000E+00
   9.287  0.524E-17  0.262E-17  0.262E-17
   9.289  0.176E-12  0.878E-13  0.878E-13
   9.291  0.797E-09  0.398E-09  0.398E-09
   9.293  0.489E-06  0.244E-06  0.244E-06
   9.295  0.406E-04  0.203E-04  0.203E-04
   9.297  0.456E-03  0.228E-03  0.228E-03
   9.299  0.712E-03  0.356E-03  0.356E-03
   9.301  0.660E-03  0.330E-03  0.330E-03
   9.303  0.206E-02  0.103E-02  0.103E-02
   9.305  0.129E-02  0.647E-03  0.647E-03
   9.307  0.129E-02  0.647E-03  0.647E-03
   9.309  0.102E-02  0.509E-03  0.509E-03
   9.311  0.115E-03  0.576E-04  0.576E-04
   9.313  0.325E-05  0.163E-05  0.163E-05
   9.315  0.124E-03  0.618E-04  0.618E-04
   9.317  0.142E-02  0.710E-03  0.710E-03
   9.319  0.265E-02  0.132E-02  0.132E-02
   9.321  0.163E-02  0.816E-03  0.816E-03
   9.323  0.374E-03  0.187E-03  0.187E-03
   9.325  0.149E-04  0.743E-05  0.743E-05
   9.327  0.822E-07  0.411E-07  0.411E-07
   9.329  0.261E-07  0.130E-07  0.130E-07
   9.331  0.606E-05  0.303E-05  0.303E-05
   9.333  0.191E-03  0.953E-04  0.953E-04
   9.335  0.812E-03  0.406E-03  0.406E-03
   9.337  0.468E-03  0.234E-03  0.234E-03
   9.339  0.365E-04  0.183E-04  0.183E-04
   9.341  0.394E-06  0.197E-06  0.197E-06
   9.343  0.302E-05  0.151E-05  0.151E-05
   9.345  0.147E-03  0.733E-04  0.733E-04
   9.347  0.964E-03  0.482E-03  0.482E-03
   9.349  0.860E-03  0.430E-03  0.430E-03
   9.351  0.240E-03  0.120E-03  0.120E-03
   9.353  0.878E-03  0.439E-03  0.439E-03
   9.355  0.838E-03  0.419E-03  0.419E-03
   9.357  0.101E-02  0.507E-03  0.507E-03
   9.359  0.140E-02  0.700E-03  0.700E-03
   9.361  0.287E-03  0.143E-03  0.143E-03
   9.363  0.815E-04  0.408E-04  0.408E-04
   9.365  0.108E-02  0.541E-03  0.541E-03
   9.367  0.215E-02  0.108E-02  0.108E-02
   9.369  0.580E-03  0.290E-03  0.290E-03
   9.371  0.620E-04  0.310E-04  0.310E-04
   9.373  0.525E-03  0.263E-03  0.263E-03
   9.375  0.913E-03  0.456E-03  0.456E-03
   9.377  0.215E-03  0.108E-03  0.108E-03
   9.379  0.570E-04  0.285E-04  0.285E-04
   9.381  0.502E-03  0.251E-03  0.251E-03
   9.383  0.681E-03  0.340E-03  0.340E-03
   9.385  0.125E-03  0.624E-04  0.624E-04
   9.387  0.310E-05  0.155E-05  0.155E-05
   9.389  0.854E-06  0.427E-06  0.427E-06
   9.391  0.545E-04  0.272E-04  0.272E-04
   9.393  0.476E-03  0.238E-03  0.238E-03
   9.395  0.563E-03  0.281E-03  0.281E-03
   9.397  0.903E-04  0.451E-04  0.451E-04
   9.399  0.246E-04  0.123E-04  0.123E-04
   9.401  0.390E-03  0.195E-03  0.195E-03
   9.403  0.908E-03  0.454E-03  0.454E-03
   9.405  0.287E-03  0.143E-03  0.143E-03
   9.407  0.123E-04  0.613E-05  0.613E-05
   9.409  0.692E-05  0.346E-05  0.346E-05
   9.411  0.303E-03  0.151E-03  0.151E-03
   9.413  0.194E-02  0.970E-03  0.970E-03
   9.415  0.237E-02  0.118E-02  0.118E-02
   9.417  0.926E-03  0.463E-03  0.463E-03
   9.419  0.673E-03  0.337E-03  0.337E-03
   9.421  0.628E-03  0.314E-03  0.314E-03
   9.423  0.365E-03  0.183E-03  0.183E-03
   9.425  0.552E-03  0.276E-03  0.276E-03
   9.427  0.324E-03  0.162E-03  0.162E-03
   9.429  0.505E-04  0.253E-04  0.253E-04
   9.431  0.153E-03  0.763E-04  0.763E-04
   9.433  0.408E-03  0.204E-03  0.204E-03
   9.435  0.149E-03  0.743E-04  0.743E-04
   9.437  0.732E-05  0.366E-05  0.366E-05
   9.439  0.489E-07  0.244E-07  0.244E-07
   9.441  0.263E-07  0.132E-07  0.132E-07
   9.443  0.368E-05  0.184E-05  0.184E-05
   9.445  0.713E-04  0.356E-04  0.356E-04
   9.447  0.212E-03  0.106E-03  0.106E-03
   9.449  0.163E-03  0.817E-04  0.817E-04
   9.451  0.472E-04  0.236E-04  0.236E-04
   9.453  0.799E-04  0.399E-04  0.399E-04
   9.455  0.101E-02  0.507E-03  0.507E-03
   9.457  0.233E-02  0.117E-02  0.117E-02
   9.459  0.192E-02  0.961E-03  0.961E-03
   9.461  0.540E-03  0.270E-03  0.270E-03
   9.463  0.831E-04  0.416E-04  0.416E-04
   9.465  0.107E-03  0.533E-04  0.533E-04
   9.467  0.855E-04  0.428E-04  0.428E-04
   9.469  0.689E-04  0.344E-04  0.344E-04
   9.471  0.443E-04  0.221E-04  0.221E-04
   9.473  0.825E-04  0.412E-04  0.412E-04
   9.475  0.326E-04  0.163E-04  0.163E-04
   9.477  0.185E-05  0.926E-06  0.926E-06
   9.479  0.777E-05  0.388E-05  0.388E-05
   9.481  0.876E-04  0.438E-04  0.438E-04
   9.483  0.137E-03  0.683E-04  0.683E-04
   9.485  0.173E-03  0.867E-04  0.867E-04
   9.487  0.107E-02  0.533E-03  0.533E-03
   9.489  0.106E-02  0.531E-03  0.531E-03
   9.491  0.149E-03  0.745E-04  0.745E-04
   9.493  0.109E-03  0.546E-04  0.546E-04
   9.495  0.297E-03  0.149E-03  0.149E-03
   9.497  0.179E-03  0.895E-04  0.895E-04
   9.499  0.507E-03  0.253E-03  0.253E-03
   9.501  0.702E-03  0.351E-03  0.351E-03
   9.503  0.125E-02  0.624E-03  0.624E-03
   9.505  0.997E-03  0.499E-03  0.499E-03
   9.507  0.312E-03  0.156E-03  0.156E-03
   9.509  0.585E-04  0.293E-04  0.293E-04
   9.511  0.200E-05  0.100E-05  0.100E-05
   9.513  0.942E-08  0.471E-08  0.471E-08
   9.515  0.601E-11  0.301E-11  0.301E-11
   9.517  0.519E-15  0.260E-15  0.260E-15
   9.519  0.268E-15  0.134E-15  0.134E-15
   9.521  0.379E-11  0.190E-11  0.190E-11
   9.523  0.725E-08  0.363E-08  0.363E-08
   9.525  0.188E-05  0.938E-06  0.938E-06
   9.527  0.657E-04  0.329E-04  0.329E-04
   9.529  0.311E-03  0.156E-03  0.156E-03
   9.531  0.200E-03  0.999E-04  0.999E-04
   9.533  0.173E-04  0.867E-05  0.867E-05
   9.535  0.204E-06  0.102E-06  0.102E-06
   9.537  0.324E-09  0.162E-09  0.162E-09
   9.539  0.697E-13  0.348E-13  0.348E-13
   9.541  0.459E-12  0.229E-12  0.229E-12
   9.543  0.196E-08  0.982E-09  0.982E-09
   9.545  0.114E-05  0.570E-06  0.570E-06
   9.547  0.894E-04  0.447E-04  0.447E-04
   9.549  0.949E-03  0.475E-03  0.475E-03
   9.551  0.136E-02  0.682E-03  0.682E-03
   9.553  0.291E-03  0.146E-03  0.146E-03
   9.555  0.298E-03  0.149E-03  0.149E-03
   9.557  0.440E-03  0.220E-03  0.220E-03
   9.559  0.900E-04  0.450E-04  0.450E-04
   9.561  0.249E-05  0.125E-05  0.125E-05
   9.563  0.935E-08  0.467E-08  0.467E-08
   9.565  0.474E-11  0.237E-11  0.237E-11
   9.567  0.326E-15  0.163E-15  0.163E-15
   9.569  0.303E-20  0.151E-20  0.151E-20
   9.571  0.000E+00  0.000E+00  0.000E+00
   9.573  0.000E+00  0.000E+00  0.000E+00
   9.575  0.719E-18  0.359E-18  0.359E-18
   9.577  0.339E-13  0.169E-13  0.169E-13
   9.579  0.216E-09  0.108E-09  0.108E-09
   9.581  0.186E-06  0.932E-07  0.932E-07
   9.583  0.218E-04  0.109E-04  0.109E-04
   9.585  0.344E-03  0.172E-03  0.172E-03
   9.587  0.737E-03  0.368E-03  0.368E-03
   9.589  0.213E-03  0.107E-03  0.107E-03
   9.591  0.863E-05  0.432E-05  0.432E-05
   9.593  0.389E-04  0.194E-04  0.194E-04
   9.595  0.751E-03  0.375E-03  0.375E-03
   9.597  0.197E-02  0.983E-03  0.983E-03
   9.599  0.697E-03  0.348E-03  0.348E-03
   9.601  0.334E-04  0.167E-04  0.167E-04
   9.603  0.217E-06  0.108E-06  0.108E-06
   9.605  0.190E-09  0.952E-10  0.952E-10
   9.607  0.226E-13  0.113E-13  0.113E-13
   9.609  0.364E-18  0.182E-18  0.182E-18
   9.611  0.000E+00  0.000E+00  0.000E+00
   9.613  0.829E-21  0.414E-21  0.414E-21
   9.615  0.893E-16  0.447E-16  0.447E-16
   9.617  0.130E-11  0.652E-12  0.652E-12
   9.619  0.257E-08  0.129E-08  0.129E-08
   9.621  0.688E-06  0.344E-06  0.344E-06
   9.623  0.249E-04  0.124E-04  0.124E-04
   9.625  0.122E-03  0.609E-04  0.609E-04
   9.627  0.807E-04  0.403E-04  0.403E-04
   9.629  0.723E-05  0.362E-05  0.362E-05
   9.631  0.878E-07  0.439E-07  0.439E-07
   9.633  0.144E-09  0.720E-10  0.720E-10
   9.635  0.320E-13  0.160E-13  0.160E-13
   9.637  0.963E-18  0.482E-18  0.482E-18
   9.639  0.215E-19  0.108E-19  0.108E-19
   9.641  0.200E-14  0.100E-14  0.100E-14
   9.643  0.252E-10  0.126E-10  0.126E-10
   9.645  0.430E-07  0.215E-07  0.215E-07
   9.647  0.101E-04  0.505E-05  0.505E-05
   9.649  0.338E-03  0.169E-03  0.169E-03
   9.651  0.185E-02  0.925E-03  0.925E-03
   9.653  0.226E-02  0.113E-02  0.113E-02
   9.655  0.127E-02  0.636E-03  0.636E-03
   9.657  0.376E-03  0.188E-03  0.188E-03
   9.659  0.785E-04  0.393E-04  0.393E-04
   9.661  0.452E-03  0.226E-03  0.226E-03
   9.663  0.484E-03  0.242E-03  0.242E-03
   9.665  0.702E-04  0.351E-04  0.351E-04
   9.667  0.138E-05  0.691E-06  0.691E-06
   9.669  0.201E-05  0.101E-05  0.101E-05
   9.671  0.889E-04  0.444E-04  0.444E-04
   9.673  0.653E-03  0.327E-03  0.327E-03
   9.675  0.169E-02  0.847E-03  0.847E-03
   9.677  0.159E-02  0.795E-03  0.795E-03
   9.679  0.251E-03  0.126E-03  0.126E-03
   9.681  0.549E-05  0.275E-05  0.275E-05
   9.683  0.163E-07  0.815E-08  0.815E-08
   9.685  0.654E-11  0.327E-11  0.327E-11
   9.687  0.356E-15  0.178E-15  0.178E-15
   9.689  0.368E-19  0.184E-19  0.184E-19
   9.691  0.250E-14  0.125E-14  0.125E-14
   9.693  0.248E-10  0.124E-10  0.124E-10
   9.695  0.334E-07  0.167E-07  0.167E-07
   9.697  0.623E-05  0.311E-05  0.311E-05
   9.699  0.179E-03  0.896E-04  0.896E-04
   9.701  0.117E-02  0.587E-03  0.587E-03
   9.703  0.248E-02  0.124E-02  0.124E-02
   9.705  0.127E-02  0.635E-03  0.635E-03
   9.707  0.124E-03  0.618E-04  0.618E-04
   9.709  0.201E-05  0.101E-05  0.101E-05
   9.711  0.495E-08  0.247E-08  0.247E-08
   9.713  0.172E-11  0.860E-12  0.860E-12
   9.715  0.175E-13  0.877E-14  0.877E-14
   9.717  0.158E-09  0.788E-10  0.788E-10
   9.719  0.192E-06  0.962E-07  0.962E-07
   9.721  0.318E-04  0.159E-04  0.159E-04
   9.723  0.712E-03  0.356E-03  0.356E-03
   9.725  0.215E-02  0.108E-02  0.108E-02
   9.727  0.883E-03  0.441E-03  0.441E-03
   9.729  0.495E-04  0.247E-04  0.247E-04
   9.731  0.366E-04  0.183E-04  0.183E-04
   9.733  0.326E-03  0.163E-03  0.163E-03
   9.735  0.397E-03  0.198E-03  0.198E-03
   9.737  0.654E-04  0.327E-04  0.327E-04
   9.739  0.146E-05  0.730E-06  0.730E-06
   9.741  0.441E-08  0.221E-08  0.221E-08
   9.743  0.122E-07  0.611E-08  0.611E-08
   9.745  0.373E-05  0.187E-05  0.187E-05
   9.747  0.154E-03  0.772E-04  0.772E-04
   9.749  0.864E-03  0.432E-03  0.432E-03
   9.751  0.655E-03  0.327E-03  0.327E-03
   9.753  0.134E-03  0.671E-04  0.671E-04
   9.755  0.941E-03  0.471E-03  0.471E-03
   9.757  0.178E-02  0.891E-03  0.891E-03
   9.759  0.458E-03  0.229E-03  0.229E-03
   9.761  0.159E-04  0.794E-05  0.794E-05
   9.763  0.747E-07  0.373E-07  0.373E-07
   9.765  0.208E-07  0.104E-07  0.104E-07
   9.767  0.428E-05  0.214E-05  0.214E-05
   9.769  0.120E-03  0.598E-04  0.598E-04
   9.771  0.453E-03  0.226E-03  0.226E-03
   9.773  0.232E-03  0.116E-03  0.116E-03
   9.775  0.303E-04  0.152E-04  0.152E-04
   9.777  0.421E-03  0.211E-03  0.211E-03
   9.779  0.169E-02  0.843E-03  0.843E-03
   9.781  0.913E-03  0.456E-03  0.456E-03
   9.783  0.669E-04  0.335E-04  0.335E-04
   9.785  0.664E-06  0.332E-06  0.332E-06
   9.787  0.366E-07  0.183E-07  0.183E-07
   9.789  0.100E-04  0.502E-05  0.502E-05
   9.791  0.423E-03  0.212E-03  0.212E-03
   9.793  0.277E-02  0.138E-02  0.138E-02
   9.795  0.286E-02  0.143E-02  0.143E-02
   9.797  0.972E-03  0.486E-03  0.486E-03
   9.799  0.115E-02  0.575E-03  0.575E-03
   9.801  0.331E-03  0.165E-03  0.165E-03
   9.803  0.497E-04  0.248E-04  0.248E-04
   9.805  0.778E-03  0.389E-03  0.389E-03
   9.807  0.223E-02  0.112E-02  0.112E-02
   9.809  0.118E-02  0.592E-03  0.592E-03
   9.811  0.212E-02  0.106E-02  0.106E-02
   9.813  0.182E-02  0.910E-03  0.910E-03
   9.815  0.216E-03  0.108E-03  0.108E-03
   9.817  0.347E-05  0.173E-05  0.173E-05
   9.819  0.362E-06  0.181E-06  0.181E-06
   9.821  0.389E-04  0.195E-04  0.195E-04
   9.823  0.579E-03  0.289E-03  0.289E-03
   9.825  0.117E-02  0.583E-03  0.583E-03
   9.827  0.383E-03  0.191E-03  0.191E-03
   9.829  0.740E-03  0.370E-03  0.370E-03
   9.831  0.206E-02  0.103E-02  0.103E-02
   9.833  0.261E-02  0.130E-02  0.130E-02
   9.835  0.697E-03  0.349E-03  0.349E-03
   9.837  0.269E-04  0.134E-04  0.134E-04
   9.839  0.142E-06  0.709E-07  0.709E-07
   9.841  0.102E-09  0.510E-10  0.510E-10
   9.843  0.191E-09  0.956E-10  0.956E-10
   9.845  0.202E-06  0.101E-06  0.101E-06
   9.847  0.296E-04  0.148E-04  0.148E-04
   9.849  0.626E-03  0.313E-03  0.313E-03
   9.851  0.203E-02  0.101E-02  0.101E-02
   9.853  0.117E-02  0.584E-03  0.584E-03
   9.855  0.558E-03  0.279E-03  0.279E-03
   9.857  0.283E-03  0.142E-03  0.142E-03
   9.859  0.103E-03  0.513E-04  0.513E-04
   9.861  0.104E-02  0.522E-03  0.522E-03
   9.863  0.185E-02  0.926E-03  0.926E-03
   9.865  0.570E-03  0.285E-03  0.285E-03
   9.867  0.139E-02  0.696E-03  0.696E-03
   9.869  0.204E-02  0.102E-02  0.102E-02
   9.871  0.410E-03  0.205E-03  0.205E-03
   9.873  0.644E-04  0.322E-04  0.322E-04
   9.875  0.534E-03  0.267E-03  0.267E-03
   9.877  0.123E-02  0.613E-03  0.613E-03
   9.879  0.379E-02  0.190E-02  0.190E-02
   9.881  0.484E-02  0.242E-02  0.242E-02
   9.883  0.127E-02  0.634E-03  0.634E-03
   9.885  0.576E-04  0.288E-04  0.288E-04
   9.887  0.393E-06  0.197E-06  0.197E-06
   9.889  0.377E-09  0.189E-09  0.189E-09
   9.891  0.496E-13  0.248E-13  0.248E-13
   9.893  0.173E-11  0.866E-12  0.866E-12
   9.895  0.437E-08  0.218E-08  0.218E-08
   9.897  0.149E-05  0.746E-06  0.746E-06
   9.899  0.689E-04  0.345E-04  0.345E-04
   9.901  0.434E-03  0.217E-03  0.217E-03
   9.903  0.519E-03  0.260E-03  0.260E-03
   9.905  0.120E-02  0.601E-03  0.601E-03
   9.907  0.118E-02  0.589E-03  0.589E-03
   9.909  0.172E-03  0.858E-04  0.858E-04
   9.911  0.242E-03  0.121E-03  0.121E-03
   9.913  0.792E-03  0.396E-03  0.396E-03
   9.915  0.860E-03  0.430E-03  0.430E-03
   9.917  0.225E-02  0.112E-02  0.112E-02
   9.919  0.130E-02  0.648E-03  0.648E-03
   9.921  0.123E-03  0.613E-04  0.613E-04
   9.923  0.593E-03  0.297E-03  0.297E-03
   9.925  0.274E-02  0.137E-02  0.137E-02
   9.927  0.196E-02  0.979E-03  0.979E-03
   9.929  0.204E-03  0.102E-03  0.102E-03
   9.931  0.298E-05  0.149E-05  0.149E-05
   9.933  0.598E-08  0.299E-08  0.299E-08
   9.935  0.164E-11  0.818E-12  0.818E-12
   9.937  0.608E-16  0.304E-16  0.304E-16
   9.939  0.733E-18  0.366E-18  0.366E-18
   9.941  0.325E-13  0.162E-13  0.162E-13
   9.943  0.195E-09  0.974E-10  0.974E-10
   9.945  0.159E-06  0.795E-07  0.795E-07
   9.947  0.181E-04  0.903E-05  0.903E-05
   9.949  0.311E-03  0.156E-03  0.156E-03
   9.951  0.106E-02  0.528E-03  0.528E-03
   9.953  0.865E-03  0.433E-03  0.433E-03
   9.955  0.137E-03  0.686E-04  0.686E-04
   9.957  0.330E-05  0.165E-05  0.165E-05
   9.959  0.675E-05  0.337E-05  0.337E-05
   9.961  0.272E-03  0.136E-03  0.136E-03
   9.963  0.148E-02  0.741E-03  0.741E-03
   9.965  0.109E-02  0.547E-03  0.547E-03
   9.967  0.109E-03  0.547E-04  0.547E-04
   9.969  0.526E-05  0.263E-05  0.263E-05
   9.971  0.114E-03  0.568E-04  0.568E-04
   9.973  0.462E-03  0.231E-03  0.231E-03
   9.975  0.262E-03  0.131E-03  0.131E-03
   9.977  0.395E-03  0.198E-03  0.198E-03
   9.979  0.297E-02  0.148E-02  0.148E-02
   9.981  0.585E-02  0.292E-02  0.292E-02
   9.983  0.489E-02  0.244E-02  0.244E-02
   9.985  0.118E-02  0.589E-03  0.589E-03
   9.987  0.505E-04  0.253E-04  0.253E-04
   9.989  0.758E-06  0.379E-06  0.379E-06
   9.991  0.619E-04  0.310E-04  0.310E-04
   9.993  0.122E-02  0.609E-03  0.609E-03
   9.995  0.353E-02  0.177E-02  0.177E-02
   9.997  0.166E-02  0.832E-03  0.832E-03
   9.999  0.203E-03  0.102E-03  0.102E-03
  10.001  0.442E-03  0.221E-03  0.221E-03
  10.003  0.405E-03  0.203E-03  0.203E-03
  10.005  0.504E-04  0.252E-04  0.252E-04
  10.007  0.850E-06  0.425E-06  0.425E-06
  10.009  0.194E-08  0.969E-09  0.969E-09
  10.011  0.627E-12  0.314E-12  0.314E-12
  10.013  0.167E-09  0.834E-10  0.834E-10
  10.015  0.128E-06  0.641E-07  0.641E-07
  10.017  0.134E-04  0.669E-05  0.669E-05
  10.019  0.196E-03  0.980E-04  0.980E-04
  10.021  0.675E-03  0.337E-03  0.337E-03
  10.023  0.175E-02  0.875E-03  0.875E-03
  10.025  0.118E-02  0.590E-03  0.590E-03
  10.027  0.113E-03  0.564E-04  0.564E-04
  10.029  0.151E-05  0.753E-06  0.753E-06
  10.031  0.128E-04  0.641E-05  0.641E-05
  10.033  0.541E-03  0.271E-03  0.271E-03
  10.035  0.309E-02  0.155E-02  0.155E-02
  10.037  0.239E-02  0.120E-02  0.120E-02
  10.039  0.431E-03  0.215E-03  0.215E-03
  10.041  0.229E-02  0.114E-02  0.114E-02
  10.043  0.550E-02  0.275E-02  0.275E-02
  10.045  0.340E-02  0.170E-02  0.170E-02
  10.047  0.333E-02  0.167E-02  0.167E-02
  10.049  0.383E-02  0.192E-02  0.192E-02
  10.051  0.327E-02  0.163E-02  0.163E-02
  10.053  0.572E-02  0.286E-02  0.286E-02
  10.055  0.579E-02  0.290E-02  0.290E-02
  10.057  0.215E-02  0.108E-02  0.108E-02
  10.059  0.374E-02  0.187E-02  0.187E-02
  10.061  0.461E-02  0.231E-02  0.231E-02
  10.063  0.166E-01  0.829E-02  0.829E-02
  10.065  0.155E-01  0.775E-02  0.775E-02
  10.067  0.234E-02  0.117E-02  0.117E-02
  10.069  0.106E-03  0.531E-04  0.531E-04
  10.071  0.226E-05  0.113E-05  0.113E-05
  10.073  0.366E-06  0.183E-06  0.183E-06
  10.075  0.378E-04  0.189E-04  0.189E-04
  10.077  0.541E-03  0.270E-03  0.270E-03
  10.079  0.105E-02  0.525E-03  0.525E-03
  10.081  0.288E-03  0.144E-03  0.144E-03
  10.083  0.431E-03  0.216E-03  0.216E-03
  10.085  0.190E-02  0.948E-03  0.948E-03
  10.087  0.115E-02  0.577E-03  0.577E-03
  10.089  0.950E-04  0.475E-04  0.475E-04
  10.091  0.831E-05  0.415E-05  0.415E-05
  10.093  0.279E-03  0.139E-03  0.139E-03
  10.095  0.161E-02  0.807E-03  0.807E-03
  10.097  0.147E-02  0.733E-03  0.733E-03
  10.099  0.222E-03  0.111E-03  0.111E-03
  10.101  0.354E-03  0.177E-03  0.177E-03
  10.103  0.149E-02  0.743E-03  0.743E-03
  10.105  0.856E-03  0.428E-03  0.428E-03
  10.107  0.829E-04  0.415E-04  0.415E-04
  10.109  0.292E-03  0.146E-03  0.146E-03
  10.111  0.755E-03  0.377E-03  0.377E-03
  10.113  0.304E-03  0.152E-03  0.152E-03
  10.115  0.254E-03  0.127E-03  0.127E-03
  10.117  0.815E-03  0.407E-03  0.407E-03
  10.119  0.379E-03  0.190E-03  0.190E-03
  10.121  0.239E-04  0.120E-04  0.120E-04
  10.123  0.204E-06  0.102E-06  0.102E-06
  10.125  0.236E-09  0.118E-09  0.118E-09
  10.127  0.368E-13  0.184E-13  0.184E-13
  10.129  0.849E-18  0.424E-18  0.424E-18
  10.131  0.485E-14  0.242E-14  0.242E-14
  10.133  0.457E-10  0.228E-10  0.228E-10
  10.135  0.582E-07  0.291E-07  0.291E-07
  10.137  0.100E-04  0.502E-05  0.502E-05
  10.139  0.235E-03  0.117E-03  0.117E-03
  10.141  0.742E-03  0.371E-03  0.371E-03
  10.143  0.318E-03  0.159E-03  0.159E-03
  10.145  0.806E-04  0.403E-04  0.403E-04
  10.147  0.103E-02  0.514E-03  0.514E-03
  10.149  0.269E-02  0.135E-02  0.135E-02
  10.151  0.184E-02  0.918E-03  0.918E-03
  10.153  0.414E-03  0.207E-03  0.207E-03
  10.155  0.367E-03  0.183E-03  0.183E-03
  10.157  0.131E-02  0.654E-03  0.654E-03
  10.159  0.848E-03  0.424E-03  0.424E-03
  10.161  0.794E-04  0.397E-04  0.397E-04
  10.163  0.436E-05  0.218E-05  0.218E-05
  10.165  0.158E-03  0.792E-04  0.792E-04
  10.167  0.111E-02  0.555E-03  0.555E-03
  10.169  0.113E-02  0.565E-03  0.565E-03
  10.171  0.173E-03  0.865E-04  0.865E-04
  10.173  0.805E-04  0.403E-04  0.403E-04
  10.175  0.153E-03  0.763E-04  0.763E-04
  10.177  0.121E-03  0.604E-04  0.604E-04
  10.179  0.705E-04  0.353E-04  0.353E-04
  10.181  0.568E-04  0.284E-04  0.284E-04
  10.183  0.343E-04  0.172E-04  0.172E-04
  10.185  0.113E-03  0.563E-04  0.563E-04
  10.187  0.394E-03  0.197E-03  0.197E-03
  10.189  0.452E-03  0.226E-03  0.226E-03
  10.191  0.114E-03  0.568E-04  0.568E-04
  10.193  0.781E-04  0.390E-04  0.390E-04
  10.195  0.505E-03  0.252E-03  0.252E-03
  10.197  0.112E-02  0.561E-03  0.561E-03
  10.199  0.612E-03  0.306E-03  0.306E-03
  10.201  0.365E-03  0.182E-03  0.182E-03
  10.203  0.908E-04  0.454E-04  0.454E-04
  10.205  0.127E-04  0.633E-05  0.633E-05
  10.207  0.292E-03  0.146E-03  0.146E-03
  10.209  0.142E-02  0.711E-03  0.711E-03
  10.211  0.192E-02  0.960E-03  0.960E-03
  10.213  0.309E-02  0.154E-02  0.154E-02
  10.215  0.154E-02  0.772E-03  0.772E-03
  10.217  0.188E-03  0.938E-04  0.938E-04
  10.219  0.158E-03  0.789E-04  0.789E-04
  10.221  0.649E-03  0.325E-03  0.325E-03
  10.223  0.129E-02  0.643E-03  0.643E-03
  10.225  0.133E-02  0.666E-03  0.666E-03
  10.227  0.288E-02  0.144E-02  0.144E-02
  10.229  0.208E-02  0.104E-02  0.104E-02
  10.231  0.810E-03  0.405E-03  0.405E-03
  10.233  0.347E-03  0.174E-03  0.174E-03
  10.235  0.473E-04  0.236E-04  0.236E-04
  10.237  0.111E-05  0.557E-06  0.557E-06
  10.239  0.163E-04  0.813E-05  0.813E-05
  10.241  0.485E-03  0.243E-03  0.243E-03
  10.243  0.236E-02  0.118E-02  0.118E-02
  10.245  0.268E-02  0.134E-02  0.134E-02
  10.247  0.145E-02  0.726E-03  0.726E-03
  10.249  0.238E-03  0.119E-03  0.119E-03
  10.251  0.104E-03  0.518E-04  0.518E-04
  10.253  0.149E-03  0.743E-04  0.743E-04
  10.255  0.198E-03  0.989E-04  0.989E-04
  10.257  0.322E-03  0.161E-03  0.161E-03
  10.259  0.101E-03  0.507E-04  0.507E-04
  10.261  0.267E-03  0.134E-03  0.134E-03
  10.263  0.773E-03  0.386E-03  0.386E-03
  10.265  0.398E-03  0.199E-03  0.199E-03
  10.267  0.872E-04  0.436E-04  0.436E-04
  10.269  0.105E-02  0.525E-03  0.525E-03
  10.271  0.328E-02  0.164E-02  0.164E-02
  10.273  0.202E-02  0.101E-02  0.101E-02
  10.275  0.107E-02  0.533E-03  0.533E-03
  10.277  0.308E-02  0.154E-02  0.154E-02
  10.279  0.264E-02  0.132E-02  0.132E-02
  10.281  0.519E-03  0.259E-03  0.259E-03
  10.283  0.230E-04  0.115E-04  0.115E-04
  10.285  0.146E-03  0.729E-04  0.729E-04
  10.287  0.835E-03  0.417E-03  0.417E-03
  10.289  0.806E-03  0.403E-03  0.403E-03
  10.291  0.199E-03  0.994E-04  0.994E-04
  10.293  0.275E-04  0.138E-04  0.138E-04
  10.295  0.866E-04  0.433E-04  0.433E-04
  10.297  0.763E-03  0.382E-03  0.382E-03
  10.299  0.199E-02  0.994E-03  0.994E-03
  10.301  0.284E-02  0.142E-02  0.142E-02
  10.303  0.114E-02  0.568E-03  0.568E-03
  10.305  0.746E-04  0.373E-04  0.373E-04
  10.307  0.730E-05  0.365E-05  0.365E-05
  10.309  0.301E-04  0.150E-04  0.150E-04
  10.311  0.187E-04  0.936E-05  0.936E-05
  10.313  0.159E-05  0.794E-06  0.794E-06
  10.315  0.183E-07  0.917E-08  0.917E-08
  10.317  0.271E-07  0.136E-07  0.136E-07
  10.319  0.573E-05  0.286E-05  0.286E-05
  10.321  0.164E-03  0.820E-04  0.820E-04
  10.323  0.640E-03  0.320E-03  0.320E-03
  10.325  0.469E-03  0.235E-03  0.235E-03
  10.327  0.556E-03  0.278E-03  0.278E-03
  10.329  0.282E-03  0.141E-03  0.141E-03
  10.331  0.225E-04  0.112E-04  0.112E-04
  10.333  0.193E-03  0.963E-04  0.963E-04
  10.335  0.233E-02  0.117E-02  0.117E-02
  10.337  0.416E-02  0.208E-02  0.208E-02
  10.339  0.289E-02  0.144E-02  0.144E-02
  10.341  0.446E-02  0.223E-02  0.223E-02
  10.343  0.173E-02  0.865E-03  0.865E-03
  10.345  0.128E-03  0.640E-04  0.640E-04
  10.347  0.435E-03  0.217E-03  0.217E-03
  10.349  0.179E-02  0.893E-03  0.893E-03
  10.351  0.210E-02  0.105E-02  0.105E-02
  10.353  0.418E-03  0.209E-03  0.209E-03
  10.355  0.631E-04  0.315E-04  0.315E-04
  10.357  0.445E-03  0.223E-03  0.223E-03
  10.359  0.578E-03  0.289E-03  0.289E-03
  10.361  0.607E-03  0.303E-03  0.303E-03
  10.363  0.106E-02  0.532E-03  0.532E-03
  10.365  0.164E-02  0.820E-03  0.820E-03
  10.367  0.771E-03  0.385E-03  0.385E-03
  10.369  0.623E-03  0.312E-03  0.312E-03
  10.371  0.216E-02  0.108E-02  0.108E-02
  10.373  0.247E-02  0.123E-02  0.123E-02
  10.375  0.153E-02  0.765E-03  0.765E-03
  10.377  0.127E-02  0.634E-03  0.634E-03
  10.379  0.130E-02  0.650E-03  0.650E-03
  10.381  0.448E-03  0.224E-03  0.224E-03
  10.383  0.975E-04  0.487E-04  0.487E-04
  10.385  0.559E-04  0.280E-04  0.280E-04
  10.387  0.982E-05  0.491E-05  0.491E-05
  10.389  0.134E-03  0.671E-04  0.671E-04
  10.391  0.651E-03  0.326E-03  0.326E-03
  10.393  0.428E-03  0.214E-03  0.214E-03
  10.395  0.382E-04  0.191E-04  0.191E-04
  10.397  0.513E-06  0.257E-06  0.257E-06
  10.399  0.151E-04  0.753E-05  0.753E-05
  10.401  0.633E-03  0.317E-03  0.317E-03
  10.403  0.436E-02  0.218E-02  0.218E-02
  10.405  0.609E-02  0.304E-02  0.304E-02
  10.407  0.276E-02  0.138E-02  0.138E-02
  10.409  0.208E-02  0.104E-02  0.104E-02
  10.411  0.150E-02  0.750E-03  0.750E-03
  10.413  0.534E-03  0.267E-03  0.267E-03
  10.415  0.548E-03  0.274E-03  0.274E-03
  10.417  0.404E-03  0.202E-03  0.202E-03
  10.419  0.913E-03  0.456E-03  0.456E-03
  10.421  0.787E-03  0.394E-03  0.394E-03
  10.423  0.451E-03  0.226E-03  0.226E-03
  10.425  0.212E-03  0.106E-03  0.106E-03
  10.427  0.758E-03  0.379E-03  0.379E-03
  10.429  0.570E-03  0.285E-03  0.285E-03
  10.431  0.842E-03  0.421E-03  0.421E-03
  10.433  0.168E-02  0.842E-03  0.842E-03
  10.435  0.566E-03  0.283E-03  0.283E-03
  10.437  0.577E-04  0.289E-04  0.289E-04
  10.439  0.109E-04  0.547E-05  0.547E-05
  10.441  0.355E-04  0.177E-04  0.177E-04
  10.443  0.152E-03  0.762E-04  0.762E-04
  10.445  0.210E-03  0.105E-03  0.105E-03
  10.447  0.161E-03  0.807E-04  0.807E-04
  10.449  0.140E-03  0.699E-04  0.699E-04
  10.451  0.555E-04  0.278E-04  0.278E-04
  10.453  0.721E-04  0.360E-04  0.360E-04
  10.455  0.339E-03  0.169E-03  0.169E-03
  10.457  0.163E-02  0.815E-03  0.815E-03
  10.459  0.174E-02  0.869E-03  0.869E-03
  10.461  0.147E-02  0.735E-03  0.735E-03
  10.463  0.319E-02  0.159E-02  0.159E-02
  10.465  0.376E-02  0.188E-02  0.188E-02
  10.467  0.269E-02  0.134E-02  0.134E-02
  10.469  0.131E-02  0.657E-03  0.657E-03
  10.471  0.403E-03  0.202E-03  0.202E-03
  10.473  0.520E-03  0.260E-03  0.260E-03
  10.475  0.267E-02  0.134E-02  0.134E-02
  10.477  0.355E-02  0.177E-02  0.177E-02
  10.479  0.220E-02  0.110E-02  0.110E-02
  10.481  0.186E-02  0.931E-03  0.931E-03
  10.483  0.308E-02  0.154E-02  0.154E-02
  10.485  0.322E-02  0.161E-02  0.161E-02
  10.487  0.621E-03  0.310E-03  0.310E-03
  10.489  0.189E-04  0.945E-05  0.945E-05
  10.491  0.527E-04  0.263E-04  0.263E-04
  10.493  0.368E-03  0.184E-03  0.184E-03
  10.495  0.420E-03  0.210E-03  0.210E-03
  10.497  0.389E-03  0.195E-03  0.195E-03
  10.499  0.349E-03  0.174E-03  0.174E-03
  10.501  0.934E-03  0.467E-03  0.467E-03
  10.503  0.186E-02  0.932E-03  0.932E-03
  10.505  0.192E-02  0.959E-03  0.959E-03
  10.507  0.437E-02  0.219E-02  0.219E-02
  10.509  0.314E-02  0.157E-02  0.157E-02
  10.511  0.267E-02  0.134E-02  0.134E-02
  10.513  0.291E-02  0.145E-02  0.145E-02
  10.515  0.175E-02  0.876E-03  0.876E-03
  10.517  0.204E-02  0.102E-02  0.102E-02
  10.519  0.325E-02  0.163E-02  0.163E-02
  10.521  0.191E-02  0.956E-03  0.956E-03
  10.523  0.191E-03  0.955E-04  0.955E-04
  10.525  0.229E-03  0.114E-03  0.114E-03
  10.527  0.414E-03  0.207E-03  0.207E-03
  10.529  0.298E-03  0.149E-03  0.149E-03
  10.531  0.739E-03  0.369E-03  0.369E-03
  10.533  0.109E-02  0.544E-03  0.544E-03
  10.535  0.740E-03  0.370E-03  0.370E-03
  10.537  0.412E-03  0.206E-03  0.206E-03
  10.539  0.297E-03  0.149E-03  0.149E-03
  10.541  0.868E-03  0.434E-03  0.434E-03
  10.543  0.687E-03  0.344E-03  0.344E-03
  10.545  0.126E-02  0.632E-03  0.632E-03
  10.547  0.181E-02  0.906E-03  0.906E-03
  10.549  0.417E-02  0.208E-02  0.208E-02
  10.551  0.495E-02  0.248E-02  0.248E-02
  10.553  0.286E-02  0.143E-02  0.143E-02
  10.555  0.164E-02  0.819E-03  0.819E-03
  10.557  0.106E-02  0.532E-03  0.532E-03
  10.559  0.659E-03  0.329E-03  0.329E-03
  10.561  0.934E-03  0.467E-03  0.467E-03
  10.563  0.236E-02  0.118E-02  0.118E-02
  10.565  0.209E-02  0.104E-02  0.104E-02
  10.567  0.174E-02  0.871E-03  0.871E-03
  10.569  0.223E-02  0.111E-02  0.111E-02
  10.571  0.343E-02  0.172E-02  0.172E-02
  10.573  0.359E-02  0.179E-02  0.179E-02
  10.575  0.391E-02  0.195E-02  0.195E-02
  10.577  0.133E-02  0.663E-03  0.663E-03
  10.579  0.719E-03  0.359E-03  0.359E-03
  10.581  0.267E-03  0.133E-03  0.133E-03
  10.583  0.454E-04  0.227E-04  0.227E-04
  10.585  0.119E-04  0.593E-05  0.593E-05
  10.587  0.584E-06  0.292E-06  0.292E-06
  10.589  0.717E-06  0.359E-06  0.359E-06
  10.591  0.472E-04  0.236E-04  0.236E-04
  10.593  0.598E-03  0.299E-03  0.299E-03
  10.595  0.206E-02  0.103E-02  0.103E-02
  10.597  0.294E-02  0.147E-02  0.147E-02
  10.599  0.149E-02  0.746E-03  0.746E-03
  10.601  0.994E-03  0.497E-03  0.497E-03
  10.603  0.114E-02  0.570E-03  0.570E-03
  10.605  0.147E-02  0.733E-03  0.733E-03
  10.607  0.157E-02  0.783E-03  0.783E-03
  10.609  0.127E-02  0.636E-03  0.636E-03
  10.611  0.780E-03  0.390E-03  0.390E-03
  10.613  0.640E-03  0.320E-03  0.320E-03
  10.615  0.162E-02  0.809E-03  0.809E-03
  10.617  0.342E-02  0.171E-02  0.171E-02
  10.619  0.193E-02  0.964E-03  0.964E-03
  10.621  0.192E-02  0.961E-03  0.961E-03
  10.623  0.315E-02  0.157E-02  0.157E-02
  10.625  0.512E-02  0.256E-02  0.256E-02
  10.627  0.341E-02  0.170E-02  0.170E-02
  10.629  0.240E-02  0.120E-02  0.120E-02
  10.631  0.364E-02  0.182E-02  0.182E-02
  10.633  0.310E-02  0.155E-02  0.155E-02
  10.635  0.780E-03  0.390E-03  0.390E-03
  10.637  0.275E-03  0.137E-03  0.137E-03
  10.639  0.471E-03  0.236E-03  0.236E-03
  10.641  0.903E-03  0.452E-03  0.452E-03
  10.643  0.262E-02  0.131E-02  0.131E-02
  10.645  0.681E-02  0.341E-02  0.341E-02
  10.647  0.704E-02  0.352E-02  0.352E-02
  10.649  0.276E-02  0.138E-02  0.138E-02
  10.651  0.228E-02  0.114E-02  0.114E-02
  10.653  0.586E-02  0.293E-02  0.293E-02
  10.655  0.383E-02  0.192E-02  0.192E-02
  10.657  0.530E-03  0.265E-03  0.265E-03
  10.659  0.278E-03  0.139E-03  0.139E-03
  10.661  0.502E-03  0.251E-03  0.251E-03
  10.663  0.952E-03  0.476E-03  0.476E-03
  10.665  0.289E-03  0.145E-03  0.145E-03
  10.667  0.492E-04  0.246E-04  0.246E-04
  10.669  0.381E-03  0.191E-03  0.191E-03
  10.671  0.991E-03  0.495E-03  0.495E-03
  10.673  0.100E-02  0.502E-03  0.502E-03
  10.675  0.216E-03  0.108E-03  0.108E-03
  10.677  0.349E-03  0.175E-03  0.175E-03
  10.679  0.254E-02  0.127E-02  0.127E-02
  10.681  0.455E-02  0.227E-02  0.227E-02
  10.683  0.150E-02  0.749E-03  0.749E-03
  10.685  0.743E-04  0.372E-04  0.372E-04
  10.687  0.709E-05  0.355E-05  0.355E-05
  10.689  0.346E-03  0.173E-03  0.173E-03
  10.691  0.260E-02  0.130E-02  0.130E-02
  10.693  0.380E-02  0.190E-02  0.190E-02
  10.695  0.257E-02  0.128E-02  0.128E-02
  10.697  0.495E-02  0.248E-02  0.248E-02
  10.699  0.818E-02  0.409E-02  0.409E-02
  10.701  0.586E-02  0.293E-02  0.293E-02
  10.703  0.135E-01  0.674E-02  0.674E-02
  10.705  0.152E-01  0.762E-02  0.762E-02
  10.707  0.749E-02  0.375E-02  0.375E-02
  10.709  0.277E-02  0.138E-02  0.138E-02
  10.711  0.528E-02  0.264E-02  0.264E-02
  10.713  0.675E-02  0.338E-02  0.338E-02
  10.715  0.187E-02  0.934E-03  0.934E-03
  10.717  0.176E-02  0.879E-03  0.879E-03
  10.719  0.201E-02  0.100E-02  0.100E-02
  10.721  0.394E-02  0.197E-02  0.197E-02
  10.723  0.683E-02  0.341E-02  0.341E-02
  10.725  0.356E-02  0.178E-02  0.178E-02
  10.727  0.313E-02  0.157E-02  0.157E-02
  10.729  0.253E-02  0.126E-02  0.126E-02
  10.731  0.978E-03  0.489E-03  0.489E-03
  10.733  0.108E-02  0.539E-03  0.539E-03
  10.735  0.379E-02  0.190E-02  0.190E-02
  10.737  0.483E-02  0.242E-02  0.242E-02
  10.739  0.423E-02  0.212E-02  0.212E-02
  10.741  0.181E-02  0.907E-03  0.907E-03
  10.743  0.153E-02  0.763E-03  0.763E-03
  10.745  0.695E-03  0.347E-03  0.347E-03
  10.747  0.713E-03  0.357E-03  0.357E-03
  10.749  0.103E-02  0.515E-03  0.515E-03
  10.751  0.280E-02  0.140E-02  0.140E-02
  10.753  0.638E-02  0.319E-02  0.319E-02
  10.755  0.541E-02  0.270E-02  0.270E-02
  10.757  0.596E-02  0.298E-02  0.298E-02
  10.759  0.461E-02  0.230E-02  0.230E-02
  10.761  0.157E-02  0.783E-03  0.783E-03
  10.763  0.239E-03  0.119E-03  0.119E-03
  10.765  0.150E-02  0.750E-03  0.750E-03
  10.767  0.519E-02  0.259E-02  0.259E-02
  10.769  0.509E-02  0.255E-02  0.255E-02
  10.771  0.304E-02  0.152E-02  0.152E-02
  10.773  0.295E-02  0.148E-02  0.148E-02
  10.775  0.760E-03  0.380E-03  0.380E-03
  10.777  0.258E-03  0.129E-03  0.129E-03
  10.779  0.195E-02  0.974E-03  0.974E-03
  10.781  0.573E-02  0.286E-02  0.286E-02
  10.783  0.817E-02  0.409E-02  0.409E-02
  10.785  0.538E-02  0.269E-02  0.269E-02
  10.787  0.122E-02  0.609E-03  0.609E-03
  10.789  0.182E-02  0.908E-03  0.908E-03
  10.791  0.429E-02  0.215E-02  0.215E-02
  10.793  0.481E-02  0.240E-02  0.240E-02
  10.795  0.651E-02  0.326E-02  0.326E-02
  10.797  0.293E-02  0.146E-02  0.146E-02
  10.799  0.101E-02  0.503E-03  0.503E-03
  10.801  0.165E-02  0.823E-03  0.823E-03
  10.803  0.740E-03  0.370E-03  0.370E-03
  10.805  0.144E-02  0.718E-03  0.718E-03
  10.807  0.478E-02  0.239E-02  0.239E-02
  10.809  0.526E-02  0.263E-02  0.263E-02
  10.811  0.357E-02  0.178E-02  0.178E-02
  10.813  0.177E-02  0.887E-03  0.887E-03
  10.815  0.240E-02  0.120E-02  0.120E-02
  10.817  0.131E-02  0.655E-03  0.655E-03
  10.819  0.244E-02  0.122E-02  0.122E-02
  10.821  0.260E-02  0.130E-02  0.130E-02
  10.823  0.613E-03  0.307E-03  0.307E-03
  10.825  0.207E-02  0.104E-02  0.104E-02
  10.827  0.428E-02  0.214E-02  0.214E-02
  10.829  0.375E-02  0.188E-02  0.188E-02
  10.831  0.207E-02  0.103E-02  0.103E-02
  10.833  0.322E-03  0.161E-03  0.161E-03
  10.835  0.425E-03  0.212E-03  0.212E-03
  10.837  0.250E-02  0.125E-02  0.125E-02
  10.839  0.356E-02  0.178E-02  0.178E-02
  10.841  0.416E-02  0.208E-02  0.208E-02
  10.843  0.396E-02  0.198E-02  0.198E-02
  10.845  0.162E-02  0.811E-03  0.811E-03
  10.847  0.283E-02  0.141E-02  0.141E-02
  10.849  0.321E-02  0.160E-02  0.160E-02
  10.851  0.153E-02  0.767E-03  0.767E-03
  10.853  0.819E-03  0.410E-03  0.410E-03
  10.855  0.324E-03  0.162E-03  0.162E-03
  10.857  0.869E-03  0.435E-03  0.435E-03
  10.859  0.186E-02  0.932E-03  0.932E-03
  10.861  0.311E-02  0.155E-02  0.155E-02
  10.863  0.775E-02  0.388E-02  0.388E-02
  10.865  0.794E-02  0.397E-02  0.397E-02
  10.867  0.370E-02  0.185E-02  0.185E-02
  10.869  0.175E-02  0.873E-03  0.873E-03
  10.871  0.180E-02  0.899E-03  0.899E-03
  10.873  0.418E-02  0.209E-02  0.209E-02
  10.875  0.271E-02  0.136E-02  0.136E-02
  10.877  0.265E-02  0.133E-02  0.133E-02
  10.879  0.230E-02  0.115E-02  0.115E-02
  10.881  0.242E-02  0.121E-02  0.121E-02
  10.883  0.322E-02  0.161E-02  0.161E-02
  10.885  0.168E-02  0.838E-03  0.838E-03
  10.887  0.161E-02  0.806E-03  0.806E-03
  10.889  0.149E-02  0.743E-03  0.743E-03
  10.891  0.627E-03  0.314E-03  0.314E-03
  10.893  0.698E-03  0.349E-03  0.349E-03
  10.895  0.316E-03  0.158E-03  0.158E-03
  10.897  0.206E-02  0.103E-02  0.103E-02
  10.899  0.451E-02  0.226E-02  0.226E-02
  10.901  0.316E-02  0.158E-02  0.158E-02
  10.903  0.378E-02  0.189E-02  0.189E-02
  10.905  0.337E-02  0.168E-02  0.168E-02
  10.907  0.160E-02  0.801E-03  0.801E-03
  10.909  0.476E-02  0.238E-02  0.238E-02
  10.911  0.575E-02  0.287E-02  0.287E-02
  10.913  0.382E-02  0.191E-02  0.191E-02
  10.915  0.411E-02  0.206E-02  0.206E-02
  10.917  0.323E-02  0.161E-02  0.161E-02
  10.919  0.302E-02  0.151E-02  0.151E-02
  10.921  0.351E-02  0.175E-02  0.175E-02
  10.923  0.381E-02  0.190E-02  0.190E-02
  10.925  0.293E-02  0.146E-02  0.146E-02
  10.927  0.242E-02  0.121E-02  0.121E-02
  10.929  0.769E-03  0.384E-03  0.384E-03
  10.931  0.750E-03  0.375E-03  0.375E-03
  10.933  0.442E-02  0.221E-02  0.221E-02
  10.935  0.516E-02  0.258E-02  0.258E-02
  10.937  0.133E-02  0.664E-03  0.664E-03
  10.939  0.968E-04  0.484E-04  0.484E-04
  10.941  0.128E-03  0.642E-04  0.642E-04
  10.943  0.237E-02  0.118E-02  0.118E-02
  10.945  0.669E-02  0.335E-02  0.335E-02
  10.947  0.597E-02  0.299E-02  0.299E-02
  10.949  0.574E-02  0.287E-02  0.287E-02
  10.951  0.451E-02  0.225E-02  0.225E-02
  10.953  0.210E-02  0.105E-02  0.105E-02
  10.955  0.156E-02  0.780E-03  0.780E-03
  10.957  0.258E-02  0.129E-02  0.129E-02
  10.959  0.277E-02  0.138E-02  0.138E-02
  10.961  0.241E-02  0.121E-02  0.121E-02
  10.963  0.217E-02  0.109E-02  0.109E-02
  10.965  0.218E-02  0.109E-02  0.109E-02
  10.967  0.312E-02  0.156E-02  0.156E-02
  10.969  0.248E-02  0.124E-02  0.124E-02
  10.971  0.171E-02  0.855E-03  0.855E-03
  10.973  0.392E-02  0.196E-02  0.196E-02
  10.975  0.348E-02  0.174E-02  0.174E-02
  10.977  0.396E-02  0.198E-02  0.198E-02
  10.979  0.402E-02  0.201E-02  0.201E-02
  10.981  0.516E-02  0.258E-02  0.258E-02
  10.983  0.420E-02  0.210E-02  0.210E-02
  10.985  0.631E-03  0.315E-03  0.315E-03
  10.987  0.616E-03  0.308E-03  0.308E-03
  10.989  0.309E-02  0.155E-02  0.155E-02
  10.991  0.307E-02  0.153E-02  0.153E-02
  10.993  0.113E-02  0.566E-03  0.566E-03
  10.995  0.406E-02  0.203E-02  0.203E-02
  10.997  0.541E-02  0.270E-02  0.270E-02
  10.999  0.497E-02  0.248E-02  0.248E-02
  11.001  0.491E-02  0.245E-02  0.245E-02
  11.003  0.359E-02  0.180E-02  0.180E-02
  11.005  0.260E-02  0.130E-02  0.130E-02
  11.007  0.182E-02  0.908E-03  0.908E-03
  11.009  0.409E-02  0.205E-02  0.205E-02
  11.011  0.331E-02  0.166E-02  0.166E-02
  11.013  0.493E-03  0.247E-03  0.247E-03
  11.015  0.719E-04  0.359E-04  0.359E-04
  11.017  0.912E-03  0.456E-03  0.456E-03
  11.019  0.251E-02  0.126E-02  0.126E-02
  11.021  0.292E-02  0.146E-02  0.146E-02
  11.023  0.257E-02  0.129E-02  0.129E-02
  11.025  0.496E-02  0.248E-02  0.248E-02
  11.027  0.488E-02  0.244E-02  0.244E-02
  11.029  0.392E-02  0.196E-02  0.196E-02
  11.031  0.753E-02  0.377E-02  0.377E-02
  11.033  0.453E-02  0.226E-02  0.226E-02
  11.035  0.219E-02  0.109E-02  0.109E-02
  11.037  0.186E-02  0.931E-03  0.931E-03
  11.039  0.120E-02  0.598E-03  0.598E-03
  11.041  0.139E-02  0.693E-03  0.693E-03
  11.043  0.193E-02  0.965E-03  0.965E-03
  11.045  0.169E-02  0.845E-03  0.845E-03
  11.047  0.130E-02  0.651E-03  0.651E-03
  11.049  0.686E-03  0.343E-03  0.343E-03
  11.051  0.244E-02  0.122E-02  0.122E-02
  11.053  0.159E-02  0.794E-03  0.794E-03
  11.055  0.143E-02  0.717E-03  0.717E-03
  11.057  0.519E-02  0.260E-02  0.260E-02
  11.059  0.458E-02  0.229E-02  0.229E-02
  11.061  0.355E-02  0.177E-02  0.177E-02
  11.063  0.395E-02  0.198E-02  0.198E-02
  11.065  0.185E-02  0.927E-03  0.927E-03
  11.067  0.120E-02  0.602E-03  0.602E-03
  11.069  0.331E-02  0.165E-02  0.165E-02
  11.071  0.288E-02  0.144E-02  0.144E-02
  11.073  0.244E-02  0.122E-02  0.122E-02
  11.075  0.454E-02  0.227E-02  0.227E-02
  11.077  0.695E-02  0.348E-02  0.348E-02
  11.079  0.528E-02  0.264E-02  0.264E-02
  11.081  0.621E-02  0.310E-02  0.310E-02
  11.083  0.508E-02  0.254E-02  0.254E-02
  11.085  0.204E-02  0.102E-02  0.102E-02
  11.087  0.136E-02  0.680E-03  0.680E-03
  11.089  0.269E-02  0.134E-02  0.134E-02
  11.091  0.551E-02  0.276E-02  0.276E-02
  11.093  0.411E-02  0.205E-02  0.205E-02
  11.095  0.800E-03  0.400E-03  0.400E-03
  11.097  0.790E-03  0.395E-03  0.395E-03
  11.099  0.144E-02  0.721E-03  0.721E-03
  11.101  0.449E-02  0.225E-02  0.225E-02
  11.103  0.434E-02  0.217E-02  0.217E-02
  11.105  0.518E-02  0.259E-02  0.259E-02
  11.107  0.275E-02  0.137E-02  0.137E-02
  11.109  0.619E-03  0.310E-03  0.310E-03
  11.111  0.168E-02  0.842E-03  0.842E-03
  11.113  0.187E-02  0.937E-03  0.937E-03
  11.115  0.595E-02  0.297E-02  0.297E-02
  11.117  0.804E-02  0.402E-02  0.402E-02
  11.119  0.375E-02  0.188E-02  0.188E-02
  11.121  0.589E-03  0.294E-03  0.294E-03
  11.123  0.107E-02  0.534E-03  0.534E-03
  11.125  0.624E-02  0.312E-02  0.312E-02
  11.127  0.117E-01  0.584E-02  0.584E-02
  11.129  0.139E-01  0.696E-02  0.696E-02
  11.131  0.138E-01  0.690E-02  0.690E-02
  11.133  0.139E-01  0.696E-02  0.696E-02
  11.135  0.565E-02  0.282E-02  0.282E-02
  11.137  0.112E-02  0.562E-03  0.562E-03
  11.139  0.317E-02  0.159E-02  0.159E-02
  11.141  0.121E-01  0.606E-02  0.606E-02
  11.143  0.119E-01  0.596E-02  0.596E-02
  11.145  0.705E-02  0.352E-02  0.352E-02
  11.147  0.378E-02  0.189E-02  0.189E-02
  11.149  0.298E-02  0.149E-02  0.149E-02
  11.151  0.309E-02  0.155E-02  0.155E-02
  11.153  0.218E-02  0.109E-02  0.109E-02
  11.155  0.864E-02  0.432E-02  0.432E-02
  11.157  0.132E-01  0.659E-02  0.659E-02
  11.159  0.643E-02  0.322E-02  0.322E-02
  11.161  0.109E-02  0.544E-03  0.544E-03
  11.163  0.161E-02  0.806E-03  0.806E-03
  11.165  0.174E-02  0.868E-03  0.868E-03
  11.167  0.169E-02  0.845E-03  0.845E-03
  11.169  0.108E-02  0.540E-03  0.540E-03
  11.171  0.415E-02  0.207E-02  0.207E-02
  11.173  0.325E-02  0.162E-02  0.162E-02
  11.175  0.521E-03  0.260E-03  0.260E-03
  11.177  0.289E-02  0.144E-02  0.144E-02
  11.179  0.889E-02  0.444E-02  0.444E-02
  11.181  0.875E-02  0.437E-02  0.437E-02
  11.183  0.605E-02  0.302E-02  0.302E-02
  11.185  0.549E-02  0.275E-02  0.275E-02
  11.187  0.348E-02  0.174E-02  0.174E-02
  11.189  0.439E-02  0.220E-02  0.220E-02
  11.191  0.437E-02  0.219E-02  0.219E-02
  11.193  0.236E-02  0.118E-02  0.118E-02
  11.195  0.196E-02  0.980E-03  0.980E-03
  11.197  0.404E-02  0.202E-02  0.202E-02
  11.199  0.299E-02  0.149E-02  0.149E-02
  11.201  0.215E-02  0.107E-02  0.107E-02
  11.203  0.244E-02  0.122E-02  0.122E-02
  11.205  0.693E-02  0.346E-02  0.346E-02
  11.207  0.652E-02  0.326E-02  0.326E-02
  11.209  0.237E-02  0.118E-02  0.118E-02
  11.211  0.216E-02  0.108E-02  0.108E-02
  11.213  0.203E-02  0.102E-02  0.102E-02
  11.215  0.307E-02  0.154E-02  0.154E-02
  11.217  0.144E-02  0.719E-03  0.719E-03
  11.219  0.224E-03  0.112E-03  0.112E-03
  11.221  0.146E-02  0.732E-03  0.732E-03
  11.223  0.230E-02  0.115E-02  0.115E-02
  11.225  0.499E-03  0.249E-03  0.249E-03
  11.227  0.148E-04  0.741E-05  0.741E-05
  11.229  0.740E-07  0.370E-07  0.370E-07
  11.231  0.595E-05  0.298E-05  0.298E-05
  11.233  0.396E-03  0.198E-03  0.198E-03
  11.235  0.432E-02  0.216E-02  0.216E-02
  11.237  0.973E-02  0.487E-02  0.487E-02
  11.239  0.631E-02  0.316E-02  0.316E-02
  11.241  0.108E-02  0.542E-03  0.542E-03
  11.243  0.173E-02  0.863E-03  0.863E-03
  11.245  0.466E-02  0.233E-02  0.233E-02
  11.247  0.252E-02  0.126E-02  0.126E-02
  11.249  0.287E-02  0.143E-02  0.143E-02
  11.251  0.343E-02  0.171E-02  0.171E-02
  11.253  0.382E-02  0.191E-02  0.191E-02
  11.255  0.426E-02  0.213E-02  0.213E-02
  11.257  0.259E-02  0.129E-02  0.129E-02
  11.259  0.108E-02  0.541E-03  0.541E-03
  11.261  0.117E-02  0.586E-03  0.586E-03
  11.263  0.297E-03  0.148E-03  0.148E-03
  11.265  0.103E-04  0.517E-05  0.517E-05
  11.267  0.107E-04  0.535E-05  0.535E-05
  11.269  0.532E-03  0.266E-03  0.266E-03
  11.271  0.380E-02  0.190E-02  0.190E-02
  11.273  0.448E-02  0.224E-02  0.224E-02
  11.275  0.110E-02  0.551E-03  0.551E-03
  11.277  0.577E-04  0.288E-04  0.288E-04
  11.279  0.158E-05  0.791E-06  0.791E-06
  11.281  0.529E-04  0.265E-04  0.265E-04
  11.283  0.422E-03  0.211E-03  0.211E-03
  11.285  0.136E-02  0.678E-03  0.678E-03
  11.287  0.232E-02  0.116E-02  0.116E-02
  11.289  0.305E-02  0.153E-02  0.153E-02
  11.291  0.509E-02  0.254E-02  0.254E-02
  11.293  0.370E-02  0.185E-02  0.185E-02
  11.295  0.319E-02  0.159E-02  0.159E-02
  11.297  0.383E-02  0.192E-02  0.192E-02
  11.299  0.400E-02  0.200E-02  0.200E-02
  11.301  0.387E-02  0.194E-02  0.194E-02
  11.303  0.210E-02  0.105E-02  0.105E-02
  11.305  0.196E-02  0.978E-03  0.978E-03
  11.307  0.417E-02  0.209E-02  0.209E-02
  11.309  0.121E-01  0.606E-02  0.606E-02
  11.311  0.105E-01  0.527E-02  0.527E-02
  11.313  0.511E-02  0.256E-02  0.256E-02
  11.315  0.121E-01  0.604E-02  0.604E-02
  11.317  0.596E-02  0.298E-02  0.298E-02
  11.319  0.419E-03  0.209E-03  0.209E-03
  11.321  0.414E-05  0.207E-05  0.207E-05
  11.323  0.575E-08  0.287E-08  0.287E-08
  11.325  0.115E-07  0.577E-08  0.577E-08
  11.327  0.582E-05  0.291E-05  0.291E-05
  11.329  0.421E-03  0.211E-03  0.211E-03
  11.331  0.457E-02  0.229E-02  0.229E-02
  11.333  0.834E-02  0.417E-02  0.417E-02
  11.335  0.347E-02  0.173E-02  0.173E-02
  11.337  0.195E-02  0.975E-03  0.975E-03
  11.339  0.425E-02  0.213E-02  0.213E-02
  11.341  0.208E-02  0.104E-02  0.104E-02
  11.343  0.108E-02  0.539E-03  0.539E-03
  11.345  0.330E-02  0.165E-02  0.165E-02
  11.347  0.299E-02  0.149E-02  0.149E-02
  11.349  0.300E-02  0.150E-02  0.150E-02
  11.351  0.573E-02  0.287E-02  0.287E-02
  11.353  0.327E-02  0.164E-02  0.164E-02
  11.355  0.139E-02  0.694E-03  0.694E-03
  11.357  0.349E-02  0.175E-02  0.175E-02
  11.359  0.755E-02  0.377E-02  0.377E-02
  11.361  0.813E-02  0.406E-02  0.406E-02
  11.363  0.442E-02  0.221E-02  0.221E-02
  11.365  0.248E-02  0.124E-02  0.124E-02
  11.367  0.178E-02  0.891E-03  0.891E-03
  11.369  0.151E-02  0.754E-03  0.754E-03
  11.371  0.547E-03  0.273E-03  0.273E-03
  11.373  0.428E-04  0.214E-04  0.214E-04
  11.375  0.358E-04  0.179E-04  0.179E-04
  11.377  0.680E-03  0.340E-03  0.340E-03
  11.379  0.178E-02  0.888E-03  0.888E-03
  11.381  0.744E-03  0.372E-03  0.372E-03
  11.383  0.107E-02  0.537E-03  0.537E-03
  11.385  0.431E-02  0.215E-02  0.215E-02
  11.387  0.587E-02  0.294E-02  0.294E-02
  11.389  0.235E-02  0.118E-02  0.118E-02
  11.391  0.250E-03  0.125E-03  0.125E-03
  11.393  0.848E-04  0.424E-04  0.424E-04
  11.395  0.213E-02  0.106E-02  0.106E-02
  11.397  0.964E-02  0.482E-02  0.482E-02
  11.399  0.831E-02  0.416E-02  0.416E-02
  11.401  0.363E-02  0.181E-02  0.181E-02
  11.403  0.169E-02  0.843E-03  0.843E-03
  11.405  0.377E-02  0.189E-02  0.189E-02
  11.407  0.534E-02  0.267E-02  0.267E-02
  11.409  0.115E-02  0.577E-03  0.577E-03
  11.411  0.733E-03  0.366E-03  0.366E-03
  11.413  0.130E-02  0.649E-03  0.649E-03
  11.415  0.963E-03  0.481E-03  0.481E-03
  11.417  0.218E-02  0.109E-02  0.109E-02
  11.419  0.191E-02  0.953E-03  0.953E-03
  11.421  0.238E-02  0.119E-02  0.119E-02
  11.423  0.211E-02  0.106E-02  0.106E-02
  11.425  0.689E-03  0.345E-03  0.345E-03
  11.427  0.160E-02  0.800E-03  0.800E-03
  11.429  0.434E-02  0.217E-02  0.217E-02
  11.431  0.315E-02  0.158E-02  0.158E-02
  11.433  0.173E-02  0.866E-03  0.866E-03
  11.435  0.182E-02  0.911E-03  0.911E-03
  11.437  0.104E-02  0.518E-03  0.518E-03
  11.439  0.165E-02  0.827E-03  0.827E-03
  11.441  0.365E-02  0.182E-02  0.182E-02
  11.443  0.645E-02  0.322E-02  0.322E-02
  11.445  0.606E-02  0.303E-02  0.303E-02
  11.447  0.219E-02  0.110E-02  0.110E-02
  11.449  0.160E-02  0.800E-03  0.800E-03
  11.451  0.106E-02  0.530E-03  0.530E-03
  11.453  0.673E-03  0.337E-03  0.337E-03
  11.455  0.137E-02  0.686E-03  0.686E-03
  11.457  0.106E-02  0.529E-03  0.529E-03
  11.459  0.162E-02  0.811E-03  0.811E-03
  11.461  0.894E-03  0.447E-03  0.447E-03
  11.463  0.130E-02  0.648E-03  0.648E-03
  11.465  0.806E-03  0.403E-03  0.403E-03
  11.467  0.273E-02  0.136E-02  0.136E-02
  11.469  0.663E-02  0.332E-02  0.332E-02
  11.471  0.260E-02  0.130E-02  0.130E-02
  11.473  0.154E-03  0.768E-04  0.768E-04
  11.475  0.112E-03  0.559E-04  0.559E-04
  11.477  0.266E-02  0.133E-02  0.133E-02
  11.479  0.907E-02  0.454E-02  0.454E-02
  11.481  0.501E-02  0.250E-02  0.250E-02
  11.483  0.183E-02  0.915E-03  0.915E-03
  11.485  0.293E-02  0.147E-02  0.147E-02
  11.487  0.176E-02  0.878E-03  0.878E-03
  11.489  0.139E-02  0.697E-03  0.697E-03
  11.491  0.250E-02  0.125E-02  0.125E-02
  11.493  0.438E-02  0.219E-02  0.219E-02
  11.495  0.539E-02  0.269E-02  0.269E-02
  11.497  0.163E-02  0.814E-03  0.814E-03
  11.499  0.438E-02  0.219E-02  0.219E-02
  11.501  0.696E-02  0.348E-02  0.348E-02
  11.503  0.530E-02  0.265E-02  0.265E-02
  11.505  0.251E-02  0.125E-02  0.125E-02
  11.507  0.506E-03  0.253E-03  0.253E-03
  11.509  0.149E-02  0.744E-03  0.744E-03
  11.511  0.123E-02  0.616E-03  0.616E-03
  11.513  0.139E-03  0.694E-04  0.694E-04
  11.515  0.469E-04  0.234E-04  0.234E-04
  11.517  0.867E-03  0.434E-03  0.434E-03
  11.519  0.249E-02  0.124E-02  0.124E-02
  11.521  0.244E-02  0.122E-02  0.122E-02
  11.523  0.338E-02  0.169E-02  0.169E-02
  11.525  0.458E-02  0.229E-02  0.229E-02
  11.527  0.404E-02  0.202E-02  0.202E-02
  11.529  0.253E-02  0.127E-02  0.127E-02
  11.531  0.155E-02  0.777E-03  0.777E-03
  11.533  0.247E-03  0.124E-03  0.124E-03
  11.535  0.499E-03  0.250E-03  0.250E-03
  11.537  0.240E-02  0.120E-02  0.120E-02
  11.539  0.202E-02  0.101E-02  0.101E-02
  11.541  0.896E-03  0.448E-03  0.448E-03
  11.543  0.135E-02  0.675E-03  0.675E-03
  11.545  0.162E-02  0.811E-03  0.811E-03
  11.547  0.679E-02  0.340E-02  0.340E-02
  11.549  0.844E-02  0.422E-02  0.422E-02
  11.551  0.324E-02  0.162E-02  0.162E-02
  11.553  0.162E-02  0.812E-03  0.812E-03
  11.555  0.153E-02  0.765E-03  0.765E-03
  11.557  0.926E-03  0.463E-03  0.463E-03
  11.559  0.249E-03  0.124E-03  0.124E-03
  11.561  0.166E-02  0.831E-03  0.831E-03
  11.563  0.585E-02  0.292E-02  0.292E-02
  11.565  0.582E-02  0.291E-02  0.291E-02
  11.567  0.150E-02  0.750E-03  0.750E-03
  11.569  0.185E-02  0.923E-03  0.923E-03
  11.571  0.298E-02  0.149E-02  0.149E-02
  11.573  0.500E-02  0.250E-02  0.250E-02
  11.575  0.521E-02  0.261E-02  0.261E-02
  11.577  0.291E-02  0.146E-02  0.146E-02
  11.579  0.242E-02  0.121E-02  0.121E-02
  11.581  0.431E-02  0.215E-02  0.215E-02
  11.583  0.416E-02  0.208E-02  0.208E-02
  11.585  0.626E-02  0.313E-02  0.313E-02
  11.587  0.424E-02  0.212E-02  0.212E-02
  11.589  0.928E-03  0.464E-03  0.464E-03
  11.591  0.194E-02  0.972E-03  0.972E-03
  11.593  0.310E-02  0.155E-02  0.155E-02
  11.595  0.230E-02  0.115E-02  0.115E-02
  11.597  0.757E-03  0.378E-03  0.378E-03
  11.599  0.500E-03  0.250E-03  0.250E-03
  11.601  0.407E-03  0.204E-03  0.204E-03
  11.603  0.105E-02  0.523E-03  0.523E-03
  11.605  0.537E-02  0.269E-02  0.269E-02
  11.607  0.887E-02  0.444E-02  0.444E-02
  11.609  0.763E-02  0.381E-02  0.381E-02
  11.611  0.396E-02  0.198E-02  0.198E-02
  11.613  0.515E-02  0.257E-02  0.257E-02
  11.615  0.322E-02  0.161E-02  0.161E-02
  11.617  0.121E-02  0.604E-03  0.604E-03
  11.619  0.601E-03  0.301E-03  0.301E-03
  11.621  0.938E-03  0.469E-03  0.469E-03
  11.623  0.143E-02  0.713E-03  0.713E-03
  11.625  0.400E-02  0.200E-02  0.200E-02
  11.627  0.300E-02  0.150E-02  0.150E-02
