# E (eV)   ldos(E)   pdos(E)_1   pdos(E)_2   pdos(E)_3   pdos(E)_4   
   7.605  0.556E-05  0.161E-05  0.117E-05  0.117E-05  0.161E-05
   7.607  0.374E-03  0.105E-03  0.818E-04  0.818E-04  0.105E-03
   7.609  0.498E-02  0.123E-02  0.126E-02  0.126E-02  0.123E-02
   7.611  0.243E-01  0.499E-02  0.718E-02  0.718E-02  0.499E-02
   7.613  0.423E-01  0.839E-02  0.128E-01  0.128E-01  0.839E-02
   7.615  0.200E-01  0.404E-02  0.594E-02  0.594E-02  0.404E-02
   7.617  0.211E-02  0.419E-03  0.636E-03  0.636E-03  0.419E-03
   7.619  0.767E-02  0.126E-02  0.257E-02  0.257E-02  0.126E-02
   7.621  0.265E-01  0.435E-02  0.891E-02  0.891E-02  0.435E-02
   7.623  0.125E-01  0.205E-02  0.418E-02  0.418E-02  0.205E-02
   7.625  0.792E-03  0.130E-03  0.266E-03  0.266E-03  0.130E-03
   7.627  0.681E-05  0.112E-05  0.229E-05  0.229E-05  0.112E-05
   7.629  0.793E-08  0.130E-08  0.266E-08  0.266E-08  0.130E-08
   7.631  0.125E-11  0.205E-12  0.419E-12  0.419E-12  0.205E-12
   7.633  0.268E-16  0.441E-17  0.900E-17  0.900E-17  0.441E-17
   7.635  0.196E-13  0.370E-14  0.612E-14  0.612E-14  0.370E-14
   7.637  0.282E-09  0.531E-10  0.877E-10  0.877E-10  0.531E-10
   7.639  0.552E-06  0.104E-06  0.172E-06  0.172E-06  0.104E-06
   7.641  0.151E-03  0.286E-04  0.470E-04  0.470E-04  0.286E-04
   7.643  0.602E-02  0.115E-02  0.186E-02  0.186E-02  0.115E-02
   7.645  0.379E-01  0.732E-02  0.116E-01  0.116E-01  0.732E-02
   7.647  0.407E-01  0.801E-02  0.123E-01  0.123E-01  0.801E-02
   7.649  0.790E-02  0.156E-02  0.239E-02  0.239E-02  0.156E-02
   7.651  0.942E-02  0.158E-02  0.313E-02  0.313E-02  0.158E-02
   7.653  0.279E-01  0.467E-02  0.930E-02  0.930E-02  0.467E-02
   7.655  0.115E-01  0.192E-02  0.382E-02  0.382E-02  0.192E-02
   7.657  0.132E-02  0.297E-03  0.363E-03  0.363E-03  0.297E-03
   7.659  0.461E-02  0.129E-02  0.102E-02  0.102E-02  0.129E-02
   7.661  0.421E-02  0.118E-02  0.930E-03  0.930E-03  0.118E-02
   7.663  0.537E-03  0.150E-03  0.118E-03  0.118E-03  0.150E-03
   7.665  0.668E-03  0.196E-03  0.138E-03  0.138E-03  0.196E-03
   7.667  0.360E-02  0.106E-02  0.742E-03  0.742E-03  0.106E-02
   7.669  0.266E-02  0.780E-03  0.548E-03  0.548E-03  0.780E-03
   7.671  0.266E-03  0.780E-04  0.548E-04  0.548E-04  0.780E-04
   7.673  0.114E-03  0.222E-04  0.350E-04  0.350E-04  0.222E-04
   7.675  0.579E-02  0.111E-02  0.178E-02  0.178E-02  0.111E-02
   7.677  0.423E-01  0.817E-02  0.130E-01  0.130E-01  0.817E-02
   7.679  0.435E-01  0.844E-02  0.133E-01  0.133E-01  0.844E-02
   7.681  0.990E-02  0.184E-02  0.311E-02  0.311E-02  0.184E-02
   7.683  0.241E-01  0.411E-02  0.795E-02  0.795E-02  0.411E-02
   7.685  0.220E-01  0.381E-02  0.719E-02  0.719E-02  0.381E-02
   7.687  0.677E-02  0.154E-02  0.184E-02  0.184E-02  0.154E-02
   7.689  0.333E-02  0.871E-03  0.793E-03  0.793E-03  0.871E-03
   7.691  0.347E-03  0.911E-04  0.823E-04  0.823E-04  0.911E-04
   7.693  0.495E-05  0.130E-05  0.117E-05  0.117E-05  0.130E-05
   7.695  0.957E-08  0.251E-08  0.227E-08  0.227E-08  0.251E-08
   7.697  0.250E-11  0.658E-12  0.594E-12  0.594E-12  0.658E-12
   7.699  0.178E-10  0.345E-11  0.546E-11  0.546E-11  0.345E-11
   7.701  0.755E-07  0.146E-07  0.231E-07  0.231E-07  0.146E-07
   7.703  0.435E-04  0.841E-05  0.134E-04  0.134E-04  0.841E-05
   7.705  0.341E-02  0.658E-03  0.105E-02  0.105E-02  0.658E-03
   7.707  0.364E-01  0.700E-02  0.112E-01  0.112E-01  0.700E-02
   7.709  0.531E-01  0.102E-01  0.164E-01  0.164E-01  0.102E-01
   7.711  0.199E-01  0.365E-02  0.633E-02  0.633E-02  0.365E-02
   7.713  0.303E-01  0.524E-02  0.991E-02  0.991E-02  0.524E-02
   7.715  0.128E-01  0.221E-02  0.418E-02  0.418E-02  0.221E-02
   7.717  0.736E-03  0.127E-03  0.241E-03  0.241E-03  0.127E-03
   7.719  0.574E-05  0.992E-06  0.188E-05  0.188E-05  0.992E-06
   7.721  0.607E-08  0.105E-08  0.198E-08  0.198E-08  0.105E-08
   7.723  0.579E-07  0.170E-07  0.119E-07  0.119E-07  0.170E-07
   7.725  0.209E-04  0.613E-05  0.433E-05  0.433E-05  0.613E-05
   7.727  0.106E-02  0.309E-03  0.220E-03  0.220E-03  0.309E-03
   7.729  0.755E-02  0.220E-02  0.158E-02  0.158E-02  0.220E-02
   7.731  0.760E-02  0.220E-02  0.160E-02  0.160E-02  0.220E-02
   7.733  0.319E-02  0.720E-03  0.877E-03  0.877E-03  0.720E-03
   7.735  0.302E-01  0.591E-02  0.920E-02  0.920E-02  0.591E-02
   7.737  0.698E-01  0.149E-01  0.200E-01  0.200E-01  0.149E-01
   7.739  0.631E-01  0.166E-01  0.150E-01  0.150E-01  0.166E-01
   7.741  0.734E-01  0.203E-01  0.164E-01  0.164E-01  0.203E-01
   7.743  0.647E-01  0.214E-01  0.109E-01  0.109E-01  0.214E-01
   7.745  0.500E-01  0.177E-01  0.729E-02  0.729E-02  0.177E-01
   7.747  0.229E-01  0.809E-02  0.334E-02  0.334E-02  0.809E-02
   7.749  0.128E-01  0.390E-02  0.252E-02  0.252E-02  0.390E-02
   7.751  0.128E-01  0.387E-02  0.252E-02  0.252E-02  0.387E-02
   7.753  0.639E-02  0.220E-02  0.994E-03  0.994E-03  0.220E-02
   7.755  0.591E-02  0.194E-02  0.101E-02  0.101E-02  0.194E-02
   7.757  0.690E-02  0.213E-02  0.131E-02  0.131E-02  0.213E-02
   7.759  0.143E-01  0.372E-02  0.341E-02  0.341E-02  0.372E-02
   7.761  0.435E-01  0.938E-02  0.124E-01  0.124E-01  0.938E-02
   7.763  0.680E-01  0.131E-01  0.210E-01  0.210E-01  0.131E-01
   7.765  0.488E-01  0.919E-02  0.152E-01  0.152E-01  0.919E-02
   7.767  0.270E-01  0.576E-02  0.773E-02  0.773E-02  0.576E-02
   7.769  0.530E-02  0.147E-02  0.118E-02  0.118E-02  0.147E-02
   7.771  0.680E-02  0.228E-02  0.112E-02  0.112E-02  0.228E-02
   7.773  0.116E-01  0.302E-02  0.277E-02  0.277E-02  0.302E-02
   7.775  0.573E-02  0.107E-02  0.179E-02  0.179E-02  0.107E-02
   7.777  0.645E-03  0.115E-03  0.208E-03  0.208E-03  0.115E-03
   7.779  0.182E-02  0.550E-03  0.361E-03  0.361E-03  0.550E-03
   7.781  0.709E-02  0.212E-02  0.142E-02  0.142E-02  0.212E-02
   7.783  0.130E-01  0.289E-02  0.362E-02  0.362E-02  0.289E-02
   7.785  0.604E-01  0.119E-01  0.183E-01  0.183E-01  0.119E-01
   7.787  0.800E-01  0.162E-01  0.238E-01  0.238E-01  0.162E-01
   7.789  0.353E-01  0.698E-02  0.107E-01  0.107E-01  0.698E-02
   7.791  0.763E-02  0.123E-02  0.258E-02  0.258E-02  0.123E-02
   7.793  0.753E-02  0.112E-02  0.264E-02  0.264E-02  0.112E-02
   7.795  0.821E-02  0.208E-02  0.203E-02  0.203E-02  0.208E-02
   7.797  0.112E-01  0.316E-02  0.246E-02  0.246E-02  0.316E-02
   7.799  0.843E-02  0.244E-02  0.178E-02  0.178E-02  0.244E-02
   7.801  0.251E-02  0.718E-03  0.537E-03  0.537E-03  0.718E-03
   7.803  0.125E-01  0.292E-02  0.333E-02  0.333E-02  0.292E-02
   7.805  0.726E-01  0.154E-01  0.209E-01  0.209E-01  0.154E-01
   7.807  0.897E-01  0.176E-01  0.272E-01  0.272E-01  0.176E-01
   7.809  0.269E-01  0.503E-02  0.842E-02  0.842E-02  0.503E-02
   7.811  0.171E-02  0.313E-03  0.543E-03  0.543E-03  0.313E-03
   7.813  0.773E-03  0.892E-04  0.297E-03  0.297E-03  0.892E-04
   7.815  0.560E-02  0.646E-03  0.215E-02  0.215E-02  0.646E-03
   7.817  0.718E-02  0.110E-02  0.249E-02  0.249E-02  0.110E-02
   7.819  0.976E-02  0.243E-02  0.245E-02  0.245E-02  0.243E-02
   7.821  0.403E-01  0.794E-02  0.122E-01  0.122E-01  0.794E-02
   7.823  0.985E-01  0.185E-01  0.308E-01  0.308E-01  0.185E-01
   7.825  0.467E-01  0.907E-02  0.143E-01  0.143E-01  0.907E-02
   7.827  0.113E-01  0.339E-02  0.224E-02  0.224E-02  0.339E-02
   7.829  0.366E-02  0.128E-02  0.553E-03  0.553E-03  0.128E-02
   7.831  0.355E-03  0.103E-03  0.739E-04  0.739E-04  0.103E-03
   7.833  0.801E-02  0.150E-02  0.250E-02  0.250E-02  0.150E-02
   7.835  0.710E-01  0.133E-01  0.222E-01  0.222E-01  0.133E-01
   7.837  0.911E-01  0.171E-01  0.285E-01  0.285E-01  0.171E-01
   7.839  0.172E-01  0.321E-02  0.537E-02  0.537E-02  0.321E-02
   7.841  0.375E-02  0.791E-03  0.108E-02  0.108E-02  0.791E-03
   7.843  0.292E-01  0.556E-02  0.902E-02  0.902E-02  0.556E-02
   7.845  0.101E+00  0.188E-01  0.318E-01  0.318E-01  0.188E-01
   7.847  0.745E-01  0.139E-01  0.233E-01  0.233E-01  0.139E-01
   7.849  0.319E-01  0.611E-02  0.984E-02  0.984E-02  0.611E-02
   7.851  0.125E+00  0.244E-01  0.379E-01  0.379E-01  0.244E-01
   7.853  0.137E+00  0.268E-01  0.419E-01  0.419E-01  0.268E-01
   7.855  0.448E-01  0.855E-02  0.139E-01  0.139E-01  0.855E-02
   7.857  0.303E-02  0.570E-03  0.944E-03  0.944E-03  0.570E-03
   7.859  0.306E-04  0.574E-05  0.954E-05  0.954E-05  0.574E-05
   7.861  0.120E-04  0.362E-05  0.241E-05  0.241E-05  0.362E-05
   7.863  0.574E-03  0.173E-03  0.115E-03  0.115E-03  0.173E-03
   7.865  0.373E-02  0.112E-02  0.743E-03  0.743E-03  0.112E-02
   7.867  0.374E-02  0.111E-02  0.763E-03  0.763E-03  0.111E-02
   7.869  0.518E-02  0.138E-02  0.121E-02  0.121E-02  0.138E-02
   7.871  0.652E-02  0.172E-02  0.154E-02  0.154E-02  0.172E-02
   7.873  0.223E-02  0.409E-03  0.706E-03  0.706E-03  0.409E-03
   7.875  0.612E-02  0.570E-03  0.249E-02  0.249E-02  0.570E-03
   7.877  0.585E-02  0.794E-03  0.213E-02  0.213E-02  0.794E-03
   7.879  0.773E-02  0.248E-02  0.139E-02  0.139E-02  0.248E-02
   7.881  0.911E-02  0.297E-02  0.159E-02  0.159E-02  0.297E-02
   7.883  0.607E-02  0.184E-02  0.119E-02  0.119E-02  0.184E-02
   7.885  0.139E-02  0.414E-03  0.280E-03  0.280E-03  0.414E-03
   7.887  0.483E-04  0.144E-04  0.976E-05  0.976E-05  0.144E-04
   7.889  0.230E-06  0.685E-07  0.464E-07  0.464E-07  0.685E-07
   7.891  0.150E-09  0.445E-10  0.303E-10  0.303E-10  0.445E-10
   7.893  0.723E-08  0.186E-08  0.176E-08  0.176E-08  0.186E-08
   7.895  0.452E-05  0.116E-05  0.110E-05  0.110E-05  0.116E-05
   7.897  0.383E-03  0.984E-04  0.931E-04  0.931E-04  0.984E-04
   7.899  0.439E-02  0.113E-02  0.107E-02  0.107E-02  0.113E-02
   7.901  0.680E-02  0.175E-02  0.165E-02  0.165E-02  0.175E-02
   7.903  0.162E-02  0.419E-03  0.394E-03  0.394E-03  0.419E-03
   7.905  0.271E-02  0.715E-03  0.642E-03  0.642E-03  0.715E-03
   7.907  0.525E-02  0.139E-02  0.124E-02  0.124E-02  0.139E-02
   7.909  0.752E-02  0.189E-02  0.187E-02  0.187E-02  0.189E-02
   7.911  0.157E-01  0.354E-02  0.433E-02  0.433E-02  0.354E-02
   7.913  0.552E-02  0.110E-02  0.166E-02  0.166E-02  0.110E-02
   7.915  0.275E-03  0.478E-04  0.898E-04  0.898E-04  0.478E-04
   7.917  0.193E-05  0.293E-06  0.673E-06  0.673E-06  0.293E-06
   7.919  0.190E-08  0.254E-09  0.698E-09  0.698E-09  0.254E-09
   7.921  0.261E-12  0.312E-13  0.992E-13  0.992E-13  0.312E-13
   7.923  0.380E-14  0.950E-15  0.950E-15  0.950E-15  0.950E-15
   7.925  0.582E-10  0.146E-10  0.145E-10  0.145E-10  0.146E-10
   7.927  0.121E-06  0.303E-07  0.302E-07  0.302E-07  0.303E-07
   7.929  0.340E-04  0.851E-05  0.849E-05  0.849E-05  0.851E-05
   7.931  0.129E-02  0.323E-03  0.323E-03  0.323E-03  0.323E-03
   7.933  0.666E-02  0.167E-02  0.166E-02  0.166E-02  0.167E-02
   7.935  0.474E-02  0.119E-02  0.118E-02  0.118E-02  0.119E-02
   7.937  0.229E-02  0.670E-03  0.476E-03  0.476E-03  0.670E-03
   7.939  0.466E-02  0.141E-02  0.922E-03  0.922E-03  0.141E-02
   7.941  0.205E-02  0.632E-03  0.396E-03  0.396E-03  0.632E-03
   7.943  0.562E-02  0.182E-02  0.988E-03  0.988E-03  0.182E-02
   7.945  0.877E-02  0.284E-02  0.155E-02  0.155E-02  0.284E-02
   7.947  0.327E-02  0.726E-03  0.911E-03  0.911E-03  0.726E-03
   7.949  0.638E-02  0.566E-03  0.262E-02  0.262E-02  0.566E-03
   7.951  0.383E-02  0.332E-03  0.158E-02  0.158E-02  0.332E-03
   7.953  0.314E-03  0.272E-04  0.130E-03  0.130E-03  0.272E-04
   7.955  0.348E-05  0.301E-06  0.144E-05  0.144E-05  0.301E-06
   7.957  0.631E-07  0.180E-07  0.136E-07  0.136E-07  0.180E-07
   7.959  0.188E-04  0.566E-05  0.372E-05  0.372E-05  0.566E-05
   7.961  0.853E-03  0.254E-03  0.172E-03  0.172E-03  0.254E-03
   7.963  0.604E-02  0.172E-02  0.130E-02  0.130E-02  0.172E-02
   7.965  0.961E-02  0.243E-02  0.237E-02  0.237E-02  0.243E-02
   7.967  0.844E-02  0.193E-02  0.229E-02  0.229E-02  0.193E-02
   7.969  0.113E-01  0.264E-02  0.302E-02  0.302E-02  0.264E-02
   7.971  0.773E-02  0.183E-02  0.204E-02  0.204E-02  0.183E-02
   7.973  0.262E-02  0.607E-03  0.704E-03  0.704E-03  0.607E-03
   7.975  0.511E-02  0.117E-02  0.139E-02  0.139E-02  0.117E-02
   7.977  0.265E-02  0.621E-03  0.706E-03  0.706E-03  0.621E-03
   7.979  0.711E-02  0.195E-02  0.160E-02  0.160E-02  0.195E-02
   7.981  0.123E-01  0.366E-02  0.249E-02  0.249E-02  0.366E-02
   7.983  0.352E-02  0.109E-02  0.669E-03  0.669E-03  0.109E-02
   7.985  0.201E-03  0.577E-04  0.429E-04  0.429E-04  0.577E-04
   7.987  0.190E-02  0.359E-03  0.592E-03  0.592E-03  0.359E-03
   7.989  0.102E-01  0.170E-02  0.342E-02  0.342E-02  0.170E-02
   7.991  0.836E-02  0.119E-02  0.299E-02  0.299E-02  0.119E-02
   7.993  0.165E-02  0.262E-03  0.561E-03  0.561E-03  0.262E-03
   7.995  0.305E-02  0.667E-03  0.857E-03  0.857E-03  0.667E-03
   7.997  0.198E-02  0.435E-03  0.556E-03  0.556E-03  0.435E-03
   7.999  0.175E-03  0.385E-04  0.492E-04  0.492E-04  0.385E-04
   8.001  0.210E-05  0.461E-06  0.589E-06  0.589E-06  0.461E-06
   8.003  0.734E-06  0.175E-06  0.192E-06  0.192E-06  0.175E-06
   8.005  0.126E-03  0.302E-04  0.330E-04  0.330E-04  0.302E-04
   8.007  0.319E-02  0.762E-03  0.834E-03  0.834E-03  0.762E-03
   8.009  0.124E-01  0.296E-02  0.324E-02  0.324E-02  0.296E-02
   8.011  0.797E-02  0.192E-02  0.207E-02  0.207E-02  0.192E-02
   8.013  0.365E-02  0.104E-02  0.785E-03  0.785E-03  0.104E-02
   8.015  0.793E-02  0.220E-02  0.177E-02  0.177E-02  0.220E-02
   8.017  0.102E-01  0.269E-02  0.242E-02  0.242E-02  0.269E-02
   8.019  0.117E-01  0.347E-02  0.238E-02  0.238E-02  0.347E-02
   8.021  0.786E-02  0.244E-02  0.149E-02  0.149E-02  0.244E-02
   8.023  0.937E-03  0.292E-03  0.177E-03  0.177E-03  0.292E-03
   8.025  0.155E-04  0.481E-05  0.292E-05  0.292E-05  0.481E-05
   8.027  0.575E-05  0.558E-06  0.232E-05  0.232E-05  0.558E-06
   8.029  0.416E-03  0.398E-04  0.168E-03  0.168E-03  0.398E-04
   8.031  0.410E-02  0.394E-03  0.166E-02  0.166E-02  0.394E-03
   8.033  0.594E-02  0.639E-03  0.233E-02  0.233E-02  0.639E-03
   8.035  0.571E-02  0.124E-02  0.161E-02  0.161E-02  0.124E-02
   8.037  0.633E-02  0.154E-02  0.163E-02  0.163E-02  0.154E-02
   8.039  0.172E-02  0.410E-03  0.449E-03  0.449E-03  0.410E-03
   8.041  0.284E-02  0.651E-03  0.769E-03  0.769E-03  0.651E-03
   8.043  0.188E-02  0.436E-03  0.506E-03  0.506E-03  0.436E-03
   8.045  0.169E-02  0.507E-03  0.338E-03  0.338E-03  0.507E-03
   8.047  0.542E-02  0.166E-02  0.105E-02  0.105E-02  0.166E-02
   8.049  0.449E-02  0.123E-02  0.101E-02  0.101E-02  0.123E-02
   8.051  0.727E-02  0.171E-02  0.192E-02  0.192E-02  0.171E-02
   8.053  0.349E-02  0.817E-03  0.930E-03  0.930E-03  0.817E-03
   8.055  0.233E-03  0.544E-04  0.619E-04  0.619E-04  0.544E-04
   8.057  0.110E-03  0.333E-04  0.216E-04  0.216E-04  0.333E-04
   8.059  0.292E-02  0.889E-03  0.569E-03  0.569E-03  0.889E-03
   8.061  0.107E-01  0.326E-02  0.209E-02  0.209E-02  0.326E-02
   8.063  0.532E-02  0.162E-02  0.104E-02  0.104E-02  0.162E-02
   8.065  0.122E-02  0.322E-03  0.287E-03  0.287E-03  0.322E-03
   8.067  0.639E-02  0.158E-02  0.161E-02  0.161E-02  0.158E-02
   8.069  0.779E-02  0.191E-02  0.198E-02  0.198E-02  0.191E-02
   8.071  0.373E-02  0.885E-03  0.980E-03  0.980E-03  0.885E-03
   8.073  0.215E-02  0.318E-03  0.758E-03  0.758E-03  0.318E-03
   8.075  0.569E-02  0.600E-03  0.224E-02  0.224E-02  0.600E-03
   8.077  0.299E-02  0.314E-03  0.118E-02  0.118E-02  0.314E-03
   8.079  0.213E-03  0.224E-04  0.841E-04  0.841E-04  0.224E-04
   8.081  0.205E-05  0.216E-06  0.811E-06  0.811E-06  0.216E-06
   8.083  0.269E-08  0.283E-09  0.106E-08  0.106E-08  0.283E-09
   8.085  0.151E-07  0.462E-08  0.295E-08  0.295E-08  0.462E-08
   8.087  0.695E-05  0.212E-05  0.135E-05  0.135E-05  0.212E-05
   8.089  0.432E-03  0.132E-03  0.841E-04  0.841E-04  0.132E-03
   8.091  0.363E-02  0.111E-02  0.708E-03  0.708E-03  0.111E-02
   8.093  0.448E-02  0.134E-02  0.900E-03  0.900E-03  0.134E-02
   8.095  0.482E-02  0.115E-02  0.126E-02  0.126E-02  0.115E-02
   8.097  0.671E-02  0.154E-02  0.182E-02  0.182E-02  0.154E-02
   8.099  0.157E-02  0.363E-03  0.424E-03  0.424E-03  0.363E-03
   8.101  0.230E-02  0.581E-03  0.570E-03  0.570E-03  0.581E-03
   8.103  0.128E-01  0.342E-02  0.297E-02  0.297E-02  0.342E-02
   8.105  0.205E-01  0.568E-02  0.455E-02  0.455E-02  0.568E-02
   8.107  0.558E-02  0.158E-02  0.121E-02  0.121E-02  0.158E-02
   8.109  0.220E-03  0.632E-04  0.468E-04  0.468E-04  0.632E-04
   8.111  0.122E-05  0.354E-06  0.256E-06  0.256E-06  0.354E-06
   8.113  0.233E-05  0.274E-06  0.891E-06  0.891E-06  0.274E-06
   8.115  0.225E-03  0.265E-04  0.862E-04  0.862E-04  0.265E-04
   8.117  0.295E-02  0.347E-03  0.113E-02  0.113E-02  0.347E-03
   8.119  0.523E-02  0.615E-03  0.200E-02  0.200E-02  0.615E-03
   8.121  0.125E-02  0.147E-03  0.480E-03  0.480E-03  0.147E-03
   8.123  0.742E-04  0.138E-04  0.233E-04  0.233E-04  0.138E-04
   8.125  0.111E-02  0.298E-03  0.257E-03  0.257E-03  0.298E-03
   8.127  0.498E-02  0.134E-02  0.115E-02  0.115E-02  0.134E-02
   8.129  0.337E-02  0.920E-03  0.764E-03  0.764E-03  0.920E-03
   8.131  0.379E-02  0.117E-02  0.727E-03  0.727E-03  0.117E-02
   8.133  0.492E-02  0.153E-02  0.933E-03  0.933E-03  0.153E-02
   8.135  0.212E-02  0.592E-03  0.470E-03  0.470E-03  0.592E-03
   8.137  0.302E-02  0.772E-03  0.738E-03  0.738E-03  0.772E-03
   8.139  0.213E-02  0.507E-03  0.560E-03  0.560E-03  0.507E-03
   8.141  0.136E-01  0.303E-02  0.377E-02  0.377E-02  0.303E-02
   8.143  0.413E-01  0.930E-02  0.114E-01  0.114E-01  0.930E-02
   8.145  0.396E-01  0.914E-02  0.107E-01  0.107E-01  0.914E-02
   8.147  0.194E-01  0.449E-02  0.519E-02  0.519E-02  0.449E-02
   8.149  0.348E-01  0.827E-02  0.913E-02  0.913E-02  0.827E-02
   8.151  0.216E-01  0.559E-02  0.521E-02  0.521E-02  0.559E-02
   8.153  0.314E-02  0.862E-03  0.710E-03  0.710E-03  0.862E-03
   8.155  0.639E-02  0.144E-02  0.175E-02  0.175E-02  0.144E-02
   8.157  0.247E-01  0.551E-02  0.683E-02  0.683E-02  0.551E-02
   8.159  0.175E-01  0.374E-02  0.500E-02  0.500E-02  0.374E-02
   8.161  0.674E-02  0.105E-02  0.232E-02  0.232E-02  0.105E-02
   8.163  0.222E-02  0.300E-03  0.812E-03  0.812E-03  0.300E-03
   8.165  0.532E-03  0.109E-03  0.157E-03  0.157E-03  0.109E-03
   8.167  0.757E-02  0.172E-02  0.206E-02  0.206E-02  0.172E-02
   8.169  0.256E-01  0.590E-02  0.687E-02  0.687E-02  0.590E-02
   8.171  0.221E-01  0.540E-02  0.564E-02  0.564E-02  0.540E-02
   8.173  0.663E-02  0.174E-02  0.157E-02  0.157E-02  0.174E-02
   8.175  0.769E-03  0.206E-03  0.178E-03  0.178E-03  0.206E-03
   8.177  0.204E-04  0.543E-05  0.475E-05  0.475E-05  0.543E-05
   8.179  0.331E-04  0.760E-05  0.893E-05  0.893E-05  0.760E-05
   8.181  0.174E-02  0.399E-03  0.470E-03  0.470E-03  0.399E-03
   8.183  0.134E-01  0.307E-02  0.365E-02  0.365E-02  0.307E-02
   8.185  0.213E-01  0.479E-02  0.588E-02  0.588E-02  0.479E-02
   8.187  0.138E-01  0.315E-02  0.376E-02  0.376E-02  0.315E-02
   8.189  0.118E-01  0.298E-02  0.294E-02  0.294E-02  0.298E-02
   8.191  0.474E-02  0.121E-02  0.116E-02  0.116E-02  0.121E-02
   8.193  0.126E-02  0.292E-03  0.338E-03  0.338E-03  0.292E-03
   8.195  0.812E-02  0.195E-02  0.211E-02  0.211E-02  0.195E-02
   8.197  0.166E-01  0.445E-02  0.387E-02  0.387E-02  0.445E-02
   8.199  0.960E-02  0.264E-02  0.216E-02  0.216E-02  0.264E-02
   8.201  0.127E-01  0.275E-02  0.358E-02  0.358E-02  0.275E-02
   8.203  0.219E-01  0.469E-02  0.625E-02  0.625E-02  0.469E-02
   8.205  0.156E-01  0.338E-02  0.442E-02  0.442E-02  0.338E-02
   8.207  0.704E-02  0.163E-02  0.189E-02  0.189E-02  0.163E-02
   8.209  0.321E-02  0.873E-03  0.735E-03  0.735E-03  0.873E-03
   8.211  0.686E-03  0.190E-03  0.153E-03  0.153E-03  0.190E-03
   8.213  0.309E-04  0.890E-05  0.654E-05  0.654E-05  0.890E-05
   8.215  0.525E-03  0.165E-03  0.976E-04  0.976E-04  0.165E-03
   8.217  0.414E-02  0.130E-02  0.770E-03  0.770E-03  0.130E-02
   8.219  0.443E-02  0.139E-02  0.826E-03  0.826E-03  0.139E-02
   8.221  0.156E-02  0.415E-03  0.363E-03  0.363E-03  0.415E-03
   8.223  0.973E-02  0.228E-02  0.259E-02  0.259E-02  0.228E-02
   8.225  0.148E-01  0.345E-02  0.397E-02  0.397E-02  0.345E-02
   8.227  0.109E-01  0.239E-02  0.304E-02  0.304E-02  0.239E-02
   8.229  0.940E-02  0.203E-02  0.267E-02  0.267E-02  0.203E-02
   8.231  0.149E-02  0.324E-03  0.420E-03  0.420E-03  0.324E-03
   8.233  0.218E-02  0.574E-03  0.516E-03  0.516E-03  0.574E-03
   8.235  0.140E-01  0.367E-02  0.332E-02  0.332E-02  0.367E-02
   8.237  0.126E-01  0.330E-02  0.302E-02  0.302E-02  0.330E-02
   8.239  0.247E-02  0.570E-03  0.665E-03  0.665E-03  0.570E-03
   8.241  0.434E-02  0.805E-03  0.136E-02  0.136E-02  0.805E-03
   8.243  0.582E-02  0.140E-02  0.151E-02  0.151E-02  0.140E-02
   8.245  0.123E-01  0.347E-02  0.269E-02  0.269E-02  0.347E-02
   8.247  0.157E-01  0.426E-02  0.357E-02  0.357E-02  0.426E-02
   8.249  0.246E-01  0.605E-02  0.625E-02  0.625E-02  0.605E-02
   8.251  0.201E-01  0.497E-02  0.508E-02  0.508E-02  0.497E-02
   8.253  0.764E-02  0.174E-02  0.208E-02  0.208E-02  0.174E-02
   8.255  0.107E-01  0.231E-02  0.305E-02  0.305E-02  0.231E-02
   8.257  0.302E-02  0.650E-03  0.860E-03  0.860E-03  0.650E-03
   8.259  0.116E-03  0.249E-04  0.330E-04  0.330E-04  0.249E-04
   8.261  0.601E-06  0.129E-06  0.171E-06  0.171E-06  0.129E-06
   8.263  0.422E-09  0.908E-10  0.120E-09  0.120E-09  0.908E-10
   8.265  0.401E-13  0.863E-14  0.114E-13  0.114E-13  0.863E-14
   8.267  0.151E-14  0.345E-15  0.411E-15  0.411E-15  0.345E-15
   8.269  0.329E-10  0.759E-11  0.884E-11  0.884E-11  0.759E-11
   8.271  0.981E-07  0.229E-07  0.261E-07  0.261E-07  0.229E-07
   8.273  0.401E-04  0.946E-05  0.106E-04  0.106E-04  0.946E-05
   8.275  0.225E-02  0.535E-03  0.588E-03  0.588E-03  0.535E-03
   8.277  0.172E-01  0.413E-02  0.447E-02  0.447E-02  0.413E-02
   8.279  0.180E-01  0.436E-02  0.464E-02  0.464E-02  0.436E-02
   8.281  0.303E-02  0.738E-03  0.776E-03  0.776E-03  0.738E-03
   8.283  0.885E-02  0.213E-02  0.229E-02  0.229E-02  0.213E-02
   8.285  0.231E-01  0.549E-02  0.604E-02  0.604E-02  0.549E-02
   8.287  0.832E-02  0.196E-02  0.220E-02  0.220E-02  0.196E-02
   8.289  0.413E-03  0.960E-04  0.110E-03  0.110E-03  0.960E-04
   8.291  0.608E-04  0.167E-04  0.137E-04  0.137E-04  0.167E-04
   8.293  0.233E-02  0.646E-03  0.518E-03  0.518E-03  0.646E-03
   8.295  0.127E-01  0.351E-02  0.281E-02  0.281E-02  0.351E-02
   8.297  0.930E-02  0.258E-02  0.207E-02  0.207E-02  0.258E-02
   8.299  0.961E-03  0.268E-03  0.212E-03  0.212E-03  0.268E-03
   8.301  0.118E-02  0.371E-03  0.217E-03  0.217E-03  0.371E-03
   8.303  0.527E-02  0.166E-02  0.973E-03  0.973E-03  0.166E-02
   8.305  0.460E-02  0.131E-02  0.990E-03  0.990E-03  0.131E-02
   8.307  0.955E-02  0.218E-02  0.260E-02  0.260E-02  0.218E-02
   8.309  0.220E-01  0.537E-02  0.564E-02  0.564E-02  0.537E-02
   8.311  0.165E-01  0.410E-02  0.414E-02  0.414E-02  0.410E-02
   8.313  0.240E-02  0.591E-03  0.609E-03  0.609E-03  0.591E-03
   8.315  0.153E-03  0.345E-04  0.422E-04  0.422E-04  0.345E-04
   8.317  0.253E-02  0.540E-03  0.726E-03  0.726E-03  0.540E-03
   8.319  0.970E-02  0.207E-02  0.278E-02  0.278E-02  0.207E-02
   8.321  0.502E-02  0.107E-02  0.144E-02  0.144E-02  0.107E-02
   8.323  0.352E-03  0.752E-04  0.101E-03  0.101E-03  0.752E-04
   8.325  0.563E-04  0.171E-04  0.111E-04  0.111E-04  0.171E-04
   8.327  0.145E-02  0.447E-03  0.276E-03  0.276E-03  0.447E-03
   8.329  0.535E-02  0.165E-02  0.102E-02  0.102E-02  0.165E-02
   8.331  0.292E-02  0.890E-03  0.571E-03  0.571E-03  0.890E-03
   8.333  0.520E-02  0.135E-02  0.125E-02  0.125E-02  0.135E-02
   8.335  0.139E-01  0.360E-02  0.336E-02  0.336E-02  0.360E-02
   8.337  0.763E-02  0.210E-02  0.172E-02  0.172E-02  0.210E-02
   8.339  0.979E-02  0.283E-02  0.207E-02  0.207E-02  0.283E-02
   8.341  0.893E-02  0.245E-02  0.202E-02  0.202E-02  0.245E-02
   8.343  0.142E-01  0.356E-02  0.355E-02  0.355E-02  0.356E-02
   8.345  0.271E-01  0.698E-02  0.656E-02  0.656E-02  0.698E-02
   8.347  0.125E-01  0.334E-02  0.291E-02  0.291E-02  0.334E-02
   8.349  0.111E-02  0.301E-03  0.253E-03  0.253E-03  0.301E-03
   8.351  0.152E-04  0.413E-05  0.346E-05  0.346E-05  0.413E-05
   8.353  0.569E-04  0.121E-04  0.164E-04  0.164E-04  0.121E-04
   8.355  0.194E-02  0.411E-03  0.557E-03  0.557E-03  0.411E-03
   8.357  0.892E-02  0.189E-02  0.257E-02  0.257E-02  0.189E-02
   8.359  0.557E-02  0.118E-02  0.160E-02  0.160E-02  0.118E-02
   8.361  0.113E-02  0.321E-03  0.244E-03  0.244E-03  0.321E-03
   8.363  0.397E-02  0.129E-02  0.691E-03  0.691E-03  0.129E-02
   8.365  0.532E-02  0.161E-02  0.105E-02  0.105E-02  0.161E-02
   8.367  0.586E-02  0.134E-02  0.159E-02  0.159E-02  0.134E-02
   8.369  0.558E-02  0.117E-02  0.162E-02  0.162E-02  0.117E-02
   8.371  0.890E-03  0.186E-03  0.258E-03  0.258E-03  0.186E-03
   8.373  0.193E-04  0.405E-05  0.562E-05  0.562E-05  0.405E-05
   8.375  0.647E-06  0.157E-06  0.167E-06  0.167E-06  0.157E-06
   8.377  0.130E-03  0.319E-04  0.332E-04  0.332E-04  0.319E-04
   8.379  0.389E-02  0.954E-03  0.991E-03  0.991E-03  0.954E-03
   8.381  0.160E-01  0.393E-02  0.405E-02  0.405E-02  0.393E-02
   8.383  0.133E-01  0.354E-02  0.313E-02  0.313E-02  0.354E-02
   8.385  0.202E-01  0.570E-02  0.441E-02  0.441E-02  0.570E-02
   8.387  0.174E-01  0.495E-02  0.373E-02  0.373E-02  0.495E-02
   8.389  0.433E-02  0.132E-02  0.849E-03  0.849E-03  0.132E-02
   8.391  0.321E-03  0.985E-04  0.618E-04  0.618E-04  0.985E-04
   8.393  0.224E-02  0.603E-03  0.516E-03  0.516E-03  0.603E-03
   8.395  0.135E-01  0.364E-02  0.312E-02  0.312E-02  0.364E-02
   8.397  0.124E-01  0.328E-02  0.294E-02  0.294E-02  0.328E-02
   8.399  0.108E-01  0.261E-02  0.280E-02  0.280E-02  0.261E-02
   8.401  0.117E-01  0.325E-02  0.262E-02  0.262E-02  0.325E-02
   8.403  0.331E-02  0.106E-02  0.592E-03  0.592E-03  0.106E-02
   8.405  0.205E-02  0.642E-03  0.384E-03  0.384E-03  0.642E-03
   8.407  0.563E-02  0.174E-02  0.107E-02  0.107E-02  0.174E-02
   8.409  0.244E-02  0.765E-03  0.456E-03  0.456E-03  0.765E-03
   8.411  0.249E-02  0.904E-03  0.342E-03  0.342E-03  0.904E-03
   8.413  0.544E-02  0.199E-02  0.733E-03  0.733E-03  0.199E-02
   8.415  0.176E-02  0.643E-03  0.239E-03  0.239E-03  0.643E-03
   8.417  0.134E-02  0.432E-03  0.241E-03  0.241E-03  0.432E-03
   8.419  0.131E-01  0.386E-02  0.269E-02  0.269E-02  0.386E-02
   8.421  0.246E-01  0.712E-02  0.517E-02  0.517E-02  0.712E-02
   8.423  0.120E-01  0.394E-02  0.207E-02  0.207E-02  0.394E-02
   8.425  0.303E-02  0.111E-02  0.400E-03  0.400E-03  0.111E-02
   8.427  0.267E-02  0.996E-03  0.338E-03  0.338E-03  0.996E-03
   8.429  0.220E-02  0.730E-03  0.371E-03  0.371E-03  0.730E-03
   8.431  0.501E-02  0.109E-02  0.142E-02  0.142E-02  0.109E-02
   8.433  0.830E-02  0.207E-02  0.208E-02  0.208E-02  0.207E-02
   8.435  0.144E-01  0.394E-02  0.325E-02  0.325E-02  0.394E-02
   8.437  0.165E-01  0.436E-02  0.389E-02  0.389E-02  0.436E-02
   8.439  0.790E-02  0.219E-02  0.176E-02  0.176E-02  0.219E-02
   8.441  0.236E-02  0.705E-03  0.475E-03  0.475E-03  0.705E-03
   8.443  0.769E-02  0.226E-02  0.158E-02  0.158E-02  0.226E-02
   8.445  0.241E-01  0.626E-02  0.579E-02  0.579E-02  0.626E-02
   8.447  0.156E-01  0.375E-02  0.407E-02  0.407E-02  0.375E-02
   8.449  0.181E-02  0.409E-03  0.497E-03  0.497E-03  0.409E-03
   8.451  0.432E-04  0.107E-04  0.109E-04  0.109E-04  0.107E-04
   8.453  0.393E-03  0.145E-03  0.520E-04  0.520E-04  0.145E-03
   8.455  0.239E-02  0.880E-03  0.316E-03  0.316E-03  0.880E-03
   8.457  0.207E-02  0.749E-03  0.285E-03  0.285E-03  0.749E-03
   8.459  0.362E-02  0.925E-03  0.884E-03  0.884E-03  0.925E-03
   8.461  0.159E-01  0.396E-02  0.401E-02  0.401E-02  0.396E-02
   8.463  0.101E-01  0.251E-02  0.254E-02  0.254E-02  0.251E-02
   8.465  0.108E-02  0.283E-03  0.257E-03  0.257E-03  0.283E-03
   8.467  0.309E-02  0.988E-03  0.558E-03  0.558E-03  0.988E-03
   8.469  0.719E-02  0.236E-02  0.123E-02  0.123E-02  0.236E-02
   8.471  0.417E-02  0.145E-02  0.631E-03  0.631E-03  0.145E-02
   8.473  0.694E-03  0.251E-03  0.961E-04  0.961E-04  0.251E-03
   8.475  0.208E-04  0.760E-05  0.283E-05  0.283E-05  0.760E-05
   8.477  0.239E-05  0.747E-06  0.447E-06  0.447E-06  0.747E-06
   8.479  0.229E-03  0.712E-04  0.435E-04  0.435E-04  0.712E-04
   8.481  0.332E-02  0.101E-02  0.646E-03  0.646E-03  0.101E-02
   8.483  0.142E-01  0.381E-02  0.328E-02  0.328E-02  0.381E-02
   8.485  0.484E-01  0.118E-01  0.124E-01  0.124E-01  0.118E-01
   8.487  0.502E-01  0.123E-01  0.128E-01  0.128E-01  0.123E-01
   8.489  0.318E-01  0.774E-02  0.814E-02  0.814E-02  0.774E-02
   8.491  0.251E-01  0.598E-02  0.655E-02  0.655E-02  0.598E-02
   8.493  0.286E-01  0.717E-02  0.712E-02  0.712E-02  0.717E-02
   8.495  0.334E-01  0.805E-02  0.867E-02  0.867E-02  0.805E-02
   8.497  0.272E-01  0.608E-02  0.751E-02  0.751E-02  0.608E-02
   8.499  0.154E-01  0.334E-02  0.438E-02  0.438E-02  0.334E-02
   8.501  0.226E-01  0.530E-02  0.598E-02  0.598E-02  0.530E-02
   8.503  0.316E-01  0.769E-02  0.810E-02  0.810E-02  0.769E-02
   8.505  0.207E-01  0.493E-02  0.540E-02  0.540E-02  0.493E-02
   8.507  0.114E-01  0.292E-02  0.280E-02  0.280E-02  0.292E-02
   8.509  0.889E-02  0.240E-02  0.205E-02  0.205E-02  0.240E-02
   8.511  0.166E-01  0.401E-02  0.429E-02  0.429E-02  0.401E-02
   8.513  0.643E-02  0.154E-02  0.168E-02  0.168E-02  0.154E-02
   8.515  0.427E-02  0.973E-03  0.116E-02  0.116E-02  0.973E-03
   8.517  0.124E-01  0.282E-02  0.339E-02  0.339E-02  0.282E-02
   8.519  0.722E-02  0.166E-02  0.195E-02  0.195E-02  0.166E-02
   8.521  0.137E-01  0.330E-02  0.357E-02  0.357E-02  0.330E-02
   8.523  0.125E-01  0.301E-02  0.325E-02  0.325E-02  0.301E-02
   8.525  0.163E-02  0.395E-03  0.421E-03  0.421E-03  0.395E-03
   8.527  0.179E-02  0.517E-03  0.376E-03  0.376E-03  0.517E-03
   8.529  0.110E-01  0.307E-02  0.245E-02  0.245E-02  0.307E-02
   8.531  0.246E-01  0.631E-02  0.599E-02  0.599E-02  0.631E-02
   8.533  0.351E-01  0.870E-02  0.882E-02  0.882E-02  0.870E-02
   8.535  0.269E-01  0.619E-02  0.727E-02  0.727E-02  0.619E-02
   8.537  0.227E-01  0.383E-02  0.752E-02  0.752E-02  0.383E-02
   8.539  0.348E-01  0.699E-02  0.104E-01  0.104E-01  0.699E-02
   8.541  0.262E-01  0.547E-02  0.762E-02  0.762E-02  0.547E-02
   8.543  0.242E-01  0.535E-02  0.676E-02  0.676E-02  0.535E-02
   8.545  0.380E-01  0.910E-02  0.991E-02  0.991E-02  0.910E-02
   8.547  0.402E-01  0.933E-02  0.108E-01  0.108E-01  0.933E-02
   8.549  0.341E-01  0.777E-02  0.928E-02  0.928E-02  0.777E-02
   8.551  0.206E-01  0.422E-02  0.607E-02  0.607E-02  0.422E-02
   8.553  0.210E-01  0.492E-02  0.559E-02  0.559E-02  0.492E-02
   8.555  0.169E-01  0.455E-02  0.391E-02  0.391E-02  0.455E-02
   8.557  0.171E-01  0.394E-02  0.459E-02  0.459E-02  0.394E-02
   8.559  0.868E-02  0.187E-02  0.247E-02  0.247E-02  0.187E-02
   8.561  0.158E-01  0.388E-02  0.403E-02  0.403E-02  0.388E-02
   8.563  0.254E-01  0.600E-02  0.670E-02  0.670E-02  0.600E-02
   8.565  0.218E-01  0.469E-02  0.619E-02  0.619E-02  0.469E-02
   8.567  0.238E-01  0.540E-02  0.653E-02  0.653E-02  0.540E-02
   8.569  0.126E-01  0.281E-02  0.351E-02  0.351E-02  0.281E-02
   8.571  0.151E-01  0.347E-02  0.410E-02  0.410E-02  0.347E-02
   8.573  0.144E-01  0.311E-02  0.409E-02  0.409E-02  0.311E-02
   8.575  0.107E-01  0.210E-02  0.325E-02  0.325E-02  0.210E-02
   8.577  0.331E-01  0.823E-02  0.830E-02  0.830E-02  0.823E-02
   8.579  0.426E-01  0.107E-01  0.106E-01  0.106E-01  0.107E-01
   8.581  0.195E-01  0.493E-02  0.481E-02  0.481E-02  0.493E-02
   8.583  0.368E-01  0.925E-02  0.916E-02  0.916E-02  0.925E-02
   8.585  0.451E-01  0.109E-01  0.116E-01  0.116E-01  0.109E-01
   8.587  0.183E-01  0.436E-02  0.480E-02  0.480E-02  0.436E-02
   8.589  0.116E-01  0.259E-02  0.320E-02  0.320E-02  0.259E-02
   8.591  0.949E-02  0.224E-02  0.251E-02  0.251E-02  0.224E-02
   8.593  0.197E-01  0.499E-02  0.486E-02  0.486E-02  0.499E-02
   8.595  0.292E-01  0.687E-02  0.774E-02  0.774E-02  0.687E-02
   8.597  0.158E-01  0.320E-02  0.471E-02  0.471E-02  0.320E-02
   8.599  0.481E-02  0.943E-03  0.146E-02  0.146E-02  0.943E-03
   8.601  0.117E-01  0.303E-02  0.283E-02  0.283E-02  0.303E-02
   8.603  0.127E-01  0.332E-02  0.305E-02  0.305E-02  0.332E-02
   8.605  0.205E-02  0.533E-03  0.490E-03  0.490E-03  0.533E-03
   8.607  0.374E-02  0.884E-03  0.988E-03  0.988E-03  0.884E-03
   8.609  0.300E-01  0.651E-02  0.851E-02  0.851E-02  0.651E-02
   8.611  0.101E+00  0.219E-01  0.286E-01  0.286E-01  0.219E-01
   8.613  0.107E+00  0.234E-01  0.300E-01  0.300E-01  0.234E-01
   8.615  0.616E-01  0.139E-01  0.169E-01  0.169E-01  0.139E-01
   8.617  0.562E-01  0.126E-01  0.155E-01  0.155E-01  0.126E-01
   8.619  0.533E-01  0.124E-01  0.143E-01  0.143E-01  0.124E-01
   8.621  0.690E-01  0.171E-01  0.174E-01  0.174E-01  0.171E-01
   8.623  0.873E-01  0.199E-01  0.237E-01  0.237E-01  0.199E-01
   8.625  0.276E-01  0.553E-02  0.829E-02  0.829E-02  0.553E-02
   8.627  0.185E-01  0.394E-02  0.531E-02  0.531E-02  0.394E-02
   8.629  0.525E-01  0.116E-01  0.147E-01  0.147E-01  0.116E-01
   8.631  0.410E-01  0.912E-02  0.114E-01  0.114E-01  0.912E-02
   8.633  0.215E-01  0.542E-02  0.532E-02  0.532E-02  0.542E-02
   8.635  0.983E-02  0.232E-02  0.260E-02  0.260E-02  0.232E-02
   8.637  0.299E-01  0.610E-02  0.884E-02  0.884E-02  0.610E-02
   8.639  0.345E-01  0.681E-02  0.104E-01  0.104E-01  0.681E-02
   8.641  0.196E-01  0.376E-02  0.604E-02  0.604E-02  0.376E-02
   8.643  0.300E-01  0.686E-02  0.815E-02  0.815E-02  0.686E-02
   8.645  0.549E-01  0.130E-01  0.144E-01  0.144E-01  0.130E-01
   8.647  0.546E-01  0.123E-01  0.150E-01  0.150E-01  0.123E-01
   8.649  0.232E-01  0.511E-02  0.647E-02  0.647E-02  0.511E-02
   8.651  0.570E-02  0.138E-02  0.147E-02  0.147E-02  0.138E-02
   8.653  0.255E-01  0.642E-02  0.632E-02  0.632E-02  0.642E-02
   8.655  0.626E-01  0.156E-01  0.158E-01  0.158E-01  0.156E-01
   8.657  0.819E-01  0.188E-01  0.221E-01  0.221E-01  0.188E-01
   8.659  0.477E-01  0.102E-01  0.137E-01  0.137E-01  0.102E-01
   8.661  0.288E-01  0.666E-02  0.775E-02  0.775E-02  0.666E-02
   8.663  0.114E-01  0.261E-02  0.311E-02  0.311E-02  0.261E-02
   8.665  0.211E-02  0.501E-03  0.554E-03  0.554E-03  0.501E-03
   8.667  0.199E-01  0.487E-02  0.507E-02  0.507E-02  0.487E-02
   8.669  0.509E-01  0.118E-01  0.137E-01  0.137E-01  0.118E-01
   8.671  0.352E-01  0.742E-02  0.102E-01  0.102E-01  0.742E-02
   8.673  0.159E-01  0.360E-02  0.434E-02  0.434E-02  0.360E-02
   8.675  0.358E-01  0.880E-02  0.909E-02  0.909E-02  0.880E-02
   8.677  0.412E-01  0.988E-02  0.107E-01  0.107E-01  0.988E-02
   8.679  0.413E-01  0.104E-01  0.102E-01  0.102E-01  0.104E-01
   8.681  0.625E-01  0.153E-01  0.159E-01  0.159E-01  0.153E-01
   8.683  0.808E-01  0.194E-01  0.210E-01  0.210E-01  0.194E-01
   8.685  0.503E-01  0.118E-01  0.133E-01  0.133E-01  0.118E-01
   8.687  0.135E-01  0.325E-02  0.350E-02  0.350E-02  0.325E-02
   8.689  0.308E-01  0.764E-02  0.776E-02  0.776E-02  0.764E-02
   8.691  0.480E-01  0.119E-01  0.121E-01  0.121E-01  0.119E-01
   8.693  0.241E-01  0.594E-02  0.612E-02  0.612E-02  0.594E-02
   8.695  0.663E-02  0.100E-02  0.231E-02  0.231E-02  0.100E-02
   8.697  0.126E-01  0.189E-02  0.442E-02  0.442E-02  0.189E-02
   8.699  0.365E-01  0.779E-02  0.105E-01  0.105E-01  0.779E-02
   8.701  0.690E-01  0.166E-01  0.179E-01  0.179E-01  0.166E-01
   8.703  0.725E-01  0.176E-01  0.187E-01  0.187E-01  0.176E-01
   8.705  0.760E-01  0.186E-01  0.194E-01  0.194E-01  0.186E-01
   8.707  0.266E-01  0.658E-02  0.671E-02  0.671E-02  0.658E-02
   8.709  0.487E-01  0.121E-01  0.122E-01  0.122E-01  0.121E-01
   8.711  0.528E-01  0.132E-01  0.132E-01  0.132E-01  0.132E-01
   8.713  0.135E-01  0.311E-02  0.364E-02  0.364E-02  0.311E-02
   8.715  0.529E-01  0.119E-01  0.145E-01  0.145E-01  0.119E-01
   8.717  0.134E+00  0.320E-01  0.352E-01  0.352E-01  0.320E-01
   8.719  0.105E+00  0.257E-01  0.269E-01  0.269E-01  0.257E-01
   8.721  0.134E+00  0.336E-01  0.333E-01  0.333E-01  0.336E-01
   8.723  0.120E+00  0.302E-01  0.296E-01  0.296E-01  0.302E-01
   8.725  0.424E-01  0.114E-01  0.980E-02  0.980E-02  0.114E-01
   8.727  0.117E-01  0.300E-02  0.284E-02  0.284E-02  0.300E-02
   8.729  0.126E-02  0.270E-03  0.362E-03  0.362E-03  0.270E-03
   8.731  0.367E-02  0.616E-03  0.122E-02  0.122E-02  0.616E-03
   8.733  0.140E-01  0.235E-02  0.465E-02  0.465E-02  0.235E-02
   8.735  0.730E-02  0.123E-02  0.242E-02  0.242E-02  0.123E-02
   8.737  0.243E-02  0.435E-03  0.778E-03  0.778E-03  0.435E-03
   8.739  0.132E-01  0.225E-02  0.435E-02  0.435E-02  0.225E-02
   8.741  0.131E-01  0.206E-02  0.447E-02  0.447E-02  0.206E-02
   8.743  0.206E-02  0.310E-03  0.721E-03  0.721E-03  0.310E-03
   8.745  0.321E-02  0.641E-03  0.966E-03  0.966E-03  0.641E-03
   8.747  0.677E-02  0.135E-02  0.203E-02  0.203E-02  0.135E-02
   8.749  0.444E-02  0.835E-03  0.139E-02  0.139E-02  0.835E-03
   8.751  0.124E-01  0.214E-02  0.405E-02  0.405E-02  0.214E-02
   8.753  0.187E-01  0.357E-02  0.579E-02  0.579E-02  0.357E-02
   8.755  0.217E-01  0.620E-02  0.463E-02  0.463E-02  0.620E-02
   8.757  0.142E-01  0.443E-02  0.269E-02  0.269E-02  0.443E-02
   8.759  0.208E-02  0.650E-03  0.388E-03  0.388E-03  0.650E-03
   8.761  0.403E-02  0.114E-02  0.879E-03  0.879E-03  0.114E-02
   8.763  0.969E-02  0.178E-02  0.307E-02  0.307E-02  0.178E-02
   8.765  0.156E-01  0.342E-02  0.441E-02  0.441E-02  0.342E-02
   8.767  0.142E-01  0.420E-02  0.289E-02  0.289E-02  0.420E-02
   8.769  0.295E-02  0.906E-03  0.570E-03  0.570E-03  0.906E-03
   8.771  0.276E-02  0.454E-03  0.925E-03  0.925E-03  0.454E-03
   8.773  0.127E-01  0.204E-02  0.433E-02  0.433E-02  0.204E-02
   8.775  0.113E-01  0.193E-02  0.373E-02  0.373E-02  0.193E-02
   8.777  0.142E-01  0.280E-02  0.428E-02  0.428E-02  0.280E-02
   8.779  0.774E-02  0.156E-02  0.231E-02  0.231E-02  0.156E-02
   8.781  0.612E-03  0.125E-03  0.181E-03  0.181E-03  0.125E-03
   8.783  0.720E-05  0.143E-05  0.217E-05  0.217E-05  0.143E-05
   8.785  0.996E-04  0.110E-04  0.388E-04  0.388E-04  0.110E-04
   8.787  0.260E-02  0.287E-03  0.102E-02  0.102E-02  0.287E-03
   8.789  0.922E-02  0.102E-02  0.359E-02  0.359E-02  0.102E-02
   8.791  0.445E-02  0.491E-03  0.173E-02  0.173E-02  0.491E-03
   8.793  0.191E-02  0.283E-03  0.670E-03  0.670E-03  0.283E-03
   8.795  0.109E-01  0.169E-02  0.375E-02  0.375E-02  0.169E-02
   8.797  0.986E-02  0.153E-02  0.340E-02  0.340E-02  0.153E-02
   8.799  0.121E-02  0.188E-03  0.418E-03  0.418E-03  0.188E-03
   8.801  0.242E-03  0.517E-04  0.691E-04  0.691E-04  0.517E-04
   8.803  0.499E-02  0.109E-02  0.140E-02  0.140E-02  0.109E-02
   8.805  0.153E-01  0.335E-02  0.429E-02  0.429E-02  0.335E-02
   8.807  0.637E-02  0.140E-02  0.179E-02  0.179E-02  0.140E-02
   8.809  0.362E-03  0.790E-04  0.102E-03  0.102E-03  0.790E-04
   8.811  0.675E-04  0.779E-05  0.260E-04  0.260E-04  0.779E-05
   8.813  0.215E-02  0.241E-03  0.833E-03  0.833E-03  0.241E-03
   8.815  0.106E-01  0.129E-02  0.402E-02  0.402E-02  0.129E-02
   8.817  0.147E-01  0.241E-02  0.496E-02  0.496E-02  0.241E-02
   8.819  0.190E-01  0.325E-02  0.627E-02  0.627E-02  0.325E-02
   8.821  0.152E-01  0.262E-02  0.499E-02  0.499E-02  0.262E-02
   8.823  0.448E-02  0.846E-03  0.139E-02  0.139E-02  0.846E-03
   8.825  0.304E-03  0.596E-04  0.923E-04  0.923E-04  0.596E-04
   8.827  0.322E-05  0.636E-06  0.973E-06  0.973E-06  0.636E-06
   8.829  0.130E-05  0.241E-06  0.411E-06  0.411E-06  0.241E-06
   8.831  0.160E-03  0.295E-04  0.505E-04  0.505E-04  0.295E-04
   8.833  0.267E-02  0.493E-03  0.842E-03  0.842E-03  0.493E-03
   8.835  0.602E-02  0.111E-02  0.190E-02  0.190E-02  0.111E-02
   8.837  0.184E-02  0.340E-03  0.582E-03  0.582E-03  0.340E-03
   8.839  0.476E-03  0.589E-04  0.179E-03  0.179E-03  0.589E-04
   8.841  0.584E-02  0.666E-03  0.226E-02  0.226E-02  0.666E-03
   8.843  0.161E-01  0.199E-02  0.603E-02  0.603E-02  0.199E-02
   8.845  0.153E-01  0.214E-02  0.550E-02  0.550E-02  0.214E-02
   8.847  0.392E-02  0.582E-03  0.138E-02  0.138E-02  0.582E-03
   8.849  0.168E-02  0.498E-03  0.345E-03  0.345E-03  0.498E-03
   8.851  0.420E-02  0.130E-02  0.797E-03  0.797E-03  0.130E-02
   8.853  0.155E-02  0.482E-03  0.295E-03  0.295E-03  0.482E-03
   8.855  0.835E-04  0.253E-04  0.164E-04  0.164E-04  0.253E-04
   8.857  0.450E-03  0.939E-04  0.131E-03  0.131E-03  0.939E-04
   8.859  0.480E-02  0.100E-02  0.140E-02  0.140E-02  0.100E-02
   8.861  0.694E-02  0.145E-02  0.202E-02  0.202E-02  0.145E-02
   8.863  0.193E-02  0.389E-03  0.575E-03  0.575E-03  0.389E-03
   8.865  0.468E-02  0.868E-03  0.147E-02  0.147E-02  0.868E-03
   8.867  0.607E-02  0.106E-02  0.197E-02  0.197E-02  0.106E-02
   8.869  0.132E-01  0.169E-02  0.489E-02  0.489E-02  0.169E-02
   8.871  0.227E-01  0.292E-02  0.840E-02  0.840E-02  0.292E-02
   8.873  0.602E-02  0.799E-03  0.221E-02  0.221E-02  0.799E-03
   8.875  0.231E-03  0.314E-04  0.843E-04  0.843E-04  0.314E-04
   8.877  0.127E-05  0.174E-06  0.458E-06  0.458E-06  0.174E-06
   8.879  0.970E-09  0.135E-09  0.350E-09  0.350E-09  0.135E-09
   8.881  0.240E-11  0.434E-12  0.767E-12  0.767E-12  0.434E-12
   8.883  0.909E-08  0.166E-08  0.288E-08  0.288E-08  0.166E-08
   8.885  0.486E-05  0.888E-06  0.154E-05  0.154E-05  0.888E-06
   8.887  0.352E-03  0.642E-04  0.112E-03  0.112E-03  0.642E-04
   8.889  0.345E-02  0.629E-03  0.109E-02  0.109E-02  0.629E-03
   8.891  0.457E-02  0.834E-03  0.145E-02  0.145E-02  0.834E-03
   8.893  0.913E-03  0.162E-03  0.294E-03  0.294E-03  0.162E-03
   8.895  0.377E-02  0.504E-03  0.138E-02  0.138E-02  0.504E-03
   8.897  0.236E-01  0.330E-02  0.848E-02  0.848E-02  0.330E-02
   8.899  0.290E-01  0.487E-02  0.965E-02  0.965E-02  0.487E-02
   8.901  0.131E-01  0.267E-02  0.390E-02  0.390E-02  0.267E-02
   8.903  0.547E-02  0.112E-02  0.162E-02  0.162E-02  0.112E-02
   8.905  0.735E-02  0.152E-02  0.216E-02  0.216E-02  0.152E-02
   8.907  0.305E-02  0.632E-03  0.893E-03  0.893E-03  0.632E-03
   8.909  0.175E-03  0.363E-04  0.514E-04  0.514E-04  0.363E-04
   8.911  0.136E-05  0.283E-06  0.400E-06  0.400E-06  0.283E-06
   8.913  0.144E-08  0.298E-09  0.421E-09  0.421E-09  0.298E-09
   8.915  0.186E-10  0.250E-11  0.679E-11  0.679E-11  0.250E-11
   8.917  0.564E-07  0.754E-08  0.207E-07  0.207E-07  0.754E-08
   8.919  0.238E-04  0.317E-05  0.872E-05  0.872E-05  0.317E-05
   8.921  0.142E-02  0.188E-03  0.524E-03  0.524E-03  0.188E-03
   8.923  0.132E-01  0.170E-02  0.489E-02  0.489E-02  0.170E-02
   8.925  0.218E-01  0.271E-02  0.820E-02  0.820E-02  0.271E-02
   8.927  0.688E-02  0.823E-03  0.262E-02  0.262E-02  0.823E-03
   8.929  0.396E-03  0.481E-04  0.150E-03  0.150E-03  0.481E-04
   8.931  0.102E-02  0.191E-03  0.321E-03  0.321E-03  0.191E-03
   8.933  0.571E-02  0.107E-02  0.179E-02  0.179E-02  0.107E-02
   8.935  0.433E-02  0.807E-03  0.136E-02  0.136E-02  0.807E-03
   8.937  0.444E-03  0.828E-04  0.139E-03  0.139E-03  0.828E-04
   8.939  0.616E-05  0.115E-05  0.193E-05  0.193E-05  0.115E-05
   8.941  0.118E-07  0.219E-08  0.371E-08  0.371E-08  0.219E-08
   8.943  0.393E-06  0.517E-07  0.145E-06  0.145E-06  0.517E-07
   8.945  0.941E-04  0.125E-04  0.345E-04  0.345E-04  0.125E-04
   8.947  0.330E-02  0.455E-03  0.120E-02  0.120E-02  0.455E-03
   8.949  0.203E-01  0.302E-02  0.712E-02  0.712E-02  0.302E-02
   8.951  0.290E-01  0.479E-02  0.971E-02  0.971E-02  0.479E-02
   8.953  0.108E-01  0.195E-02  0.344E-02  0.344E-02  0.195E-02
   8.955  0.886E-03  0.171E-03  0.272E-03  0.272E-03  0.171E-03
   8.957  0.130E-04  0.261E-05  0.390E-05  0.390E-05  0.261E-05
   8.959  0.291E-07  0.593E-08  0.863E-08  0.863E-08  0.593E-08
   8.961  0.161E-10  0.318E-11  0.489E-11  0.489E-11  0.318E-11
   8.963  0.227E-07  0.424E-08  0.710E-08  0.710E-08  0.424E-08
   8.965  0.101E-04  0.188E-05  0.315E-05  0.315E-05  0.188E-05
   8.967  0.607E-03  0.113E-03  0.190E-03  0.190E-03  0.113E-03
   8.969  0.535E-02  0.974E-03  0.170E-02  0.170E-02  0.974E-03
   8.971  0.131E-01  0.199E-02  0.457E-02  0.457E-02  0.199E-02
   8.973  0.234E-01  0.297E-02  0.873E-02  0.873E-02  0.297E-02
   8.975  0.131E-01  0.162E-02  0.492E-02  0.492E-02  0.162E-02
   8.977  0.433E-02  0.698E-03  0.147E-02  0.147E-02  0.698E-03
   8.979  0.450E-02  0.804E-03  0.145E-02  0.145E-02  0.804E-03
   8.981  0.917E-03  0.164E-03  0.294E-03  0.294E-03  0.164E-03
   8.983  0.817E-03  0.158E-03  0.251E-03  0.251E-03  0.158E-03
   8.985  0.488E-02  0.944E-03  0.150E-02  0.150E-02  0.944E-03
   8.987  0.408E-02  0.788E-03  0.125E-02  0.125E-02  0.788E-03
   8.989  0.115E-02  0.176E-03  0.400E-03  0.400E-03  0.176E-03
   8.991  0.103E-01  0.130E-02  0.387E-02  0.387E-02  0.130E-02
   8.993  0.244E-01  0.304E-02  0.917E-02  0.917E-02  0.304E-02
   8.995  0.938E-02  0.116E-02  0.353E-02  0.353E-02  0.116E-02
   8.997  0.809E-03  0.119E-03  0.286E-03  0.286E-03  0.119E-03
   8.999  0.327E-02  0.667E-03  0.970E-03  0.970E-03  0.667E-03
   9.001  0.624E-02  0.129E-02  0.183E-02  0.183E-02  0.129E-02
   9.003  0.418E-02  0.108E-02  0.101E-02  0.101E-02  0.108E-02
   9.005  0.808E-02  0.180E-02  0.223E-02  0.223E-02  0.180E-02
   9.007  0.262E-01  0.374E-02  0.935E-02  0.935E-02  0.374E-02
   9.009  0.252E-01  0.349E-02  0.909E-02  0.909E-02  0.349E-02
   9.011  0.355E-02  0.499E-03  0.128E-02  0.128E-02  0.499E-03
   9.013  0.287E-03  0.370E-04  0.106E-03  0.106E-03  0.370E-04
   9.015  0.632E-02  0.789E-03  0.237E-02  0.237E-02  0.789E-03
   9.017  0.261E-01  0.325E-02  0.977E-02  0.977E-02  0.325E-02
   9.019  0.289E-01  0.361E-02  0.108E-01  0.108E-01  0.361E-02
   9.021  0.367E-01  0.459E-02  0.138E-01  0.138E-01  0.459E-02
   9.023  0.177E-01  0.221E-02  0.664E-02  0.664E-02  0.221E-02
   9.025  0.128E-01  0.161E-02  0.482E-02  0.482E-02  0.161E-02
   9.027  0.843E-02  0.106E-02  0.316E-02  0.316E-02  0.106E-02
   9.029  0.212E-02  0.266E-03  0.796E-03  0.796E-03  0.266E-03
   9.031  0.990E-02  0.124E-02  0.371E-02  0.371E-02  0.124E-02
   9.033  0.102E-01  0.128E-02  0.382E-02  0.382E-02  0.128E-02
   9.035  0.143E-02  0.179E-03  0.535E-03  0.535E-03  0.179E-03
   9.037  0.310E-03  0.389E-04  0.116E-03  0.116E-03  0.389E-04
   9.039  0.517E-02  0.649E-03  0.194E-02  0.194E-02  0.649E-03
   9.041  0.128E-01  0.161E-02  0.479E-02  0.479E-02  0.161E-02
   9.043  0.430E-02  0.541E-03  0.161E-02  0.161E-02  0.541E-03
   9.045  0.961E-03  0.169E-03  0.312E-03  0.312E-03  0.169E-03
   9.047  0.553E-02  0.104E-02  0.172E-02  0.172E-02  0.104E-02
   9.049  0.844E-02  0.157E-02  0.265E-02  0.265E-02  0.157E-02
   9.051  0.148E-01  0.234E-02  0.506E-02  0.506E-02  0.234E-02
   9.053  0.130E-01  0.177E-02  0.473E-02  0.473E-02  0.177E-02
   9.055  0.210E-02  0.270E-03  0.781E-03  0.781E-03  0.270E-03
   9.057  0.132E-03  0.301E-04  0.359E-04  0.359E-04  0.301E-04
   9.059  0.171E-02  0.496E-03  0.359E-03  0.359E-03  0.496E-03
   9.061  0.483E-02  0.140E-02  0.102E-02  0.102E-02  0.140E-02
   9.063  0.287E-02  0.664E-03  0.773E-03  0.773E-03  0.664E-03
   9.065  0.940E-02  0.122E-02  0.348E-02  0.348E-02  0.122E-02
   9.067  0.136E-01  0.187E-02  0.494E-02  0.494E-02  0.187E-02
   9.069  0.570E-02  0.917E-03  0.193E-02  0.193E-02  0.917E-03
   9.071  0.937E-03  0.165E-03  0.303E-03  0.303E-03  0.165E-03
   9.073  0.267E-02  0.510E-03  0.823E-03  0.823E-03  0.510E-03
   9.075  0.532E-02  0.102E-02  0.164E-02  0.164E-02  0.102E-02
   9.077  0.145E-02  0.278E-03  0.449E-03  0.449E-03  0.278E-03
   9.079  0.626E-03  0.827E-04  0.230E-03  0.230E-03  0.827E-04
   9.081  0.706E-02  0.893E-03  0.264E-02  0.264E-02  0.893E-03
   9.083  0.118E-01  0.149E-02  0.440E-02  0.440E-02  0.149E-02
   9.085  0.271E-02  0.347E-03  0.101E-02  0.101E-02  0.347E-03
   9.087  0.169E-02  0.314E-03  0.531E-03  0.531E-03  0.314E-03
   9.089  0.648E-02  0.122E-02  0.202E-02  0.202E-02  0.122E-02
   9.091  0.353E-02  0.666E-03  0.110E-02  0.110E-02  0.666E-03
   9.093  0.260E-03  0.490E-04  0.809E-04  0.809E-04  0.490E-04
   9.095  0.320E-05  0.567E-06  0.103E-05  0.103E-05  0.567E-06
   9.097  0.126E-03  0.164E-04  0.466E-04  0.466E-04  0.164E-04
   9.099  0.365E-02  0.491E-03  0.133E-02  0.133E-02  0.491E-03
   9.101  0.156E-01  0.224E-02  0.556E-02  0.556E-02  0.224E-02
   9.103  0.106E-01  0.168E-02  0.361E-02  0.361E-02  0.168E-02
   9.105  0.120E-02  0.211E-03  0.390E-03  0.390E-03  0.211E-03
   9.107  0.226E-04  0.425E-05  0.703E-05  0.703E-05  0.425E-05
   9.109  0.650E-07  0.127E-07  0.198E-07  0.198E-07  0.127E-07
   9.111  0.340E-10  0.735E-11  0.964E-11  0.964E-11  0.735E-11
   9.113  0.215E-07  0.613E-08  0.463E-08  0.463E-08  0.613E-08
   9.115  0.890E-05  0.254E-05  0.192E-05  0.192E-05  0.254E-05
   9.117  0.504E-03  0.143E-03  0.109E-03  0.109E-03  0.143E-03
   9.119  0.433E-02  0.114E-02  0.102E-02  0.102E-02  0.114E-02
   9.121  0.108E-01  0.198E-02  0.340E-02  0.340E-02  0.198E-02
   9.123  0.120E-01  0.162E-02  0.439E-02  0.439E-02  0.162E-02
   9.125  0.260E-02  0.332E-03  0.965E-03  0.965E-03  0.332E-03
   9.127  0.827E-04  0.108E-04  0.306E-04  0.306E-04  0.108E-04
   9.129  0.336E-03  0.635E-04  0.104E-03  0.104E-03  0.635E-04
   9.131  0.394E-02  0.745E-03  0.122E-02  0.122E-02  0.745E-03
   9.133  0.625E-02  0.118E-02  0.194E-02  0.194E-02  0.118E-02
   9.135  0.134E-02  0.255E-03  0.417E-03  0.417E-03  0.255E-03
   9.137  0.391E-04  0.741E-05  0.121E-04  0.121E-04  0.741E-05
   9.139  0.195E-06  0.344E-07  0.629E-07  0.629E-07  0.344E-07
   9.141  0.181E-04  0.232E-05  0.673E-05  0.673E-05  0.232E-05
   9.143  0.109E-02  0.139E-03  0.405E-03  0.405E-03  0.139E-03
   9.145  0.888E-02  0.114E-02  0.330E-02  0.330E-02  0.114E-02
   9.147  0.979E-02  0.125E-02  0.364E-02  0.364E-02  0.125E-02
   9.149  0.146E-02  0.188E-03  0.544E-03  0.544E-03  0.188E-03
   9.151  0.279E-03  0.533E-04  0.859E-04  0.859E-04  0.533E-04
   9.153  0.283E-02  0.562E-03  0.851E-03  0.851E-03  0.562E-03
   9.155  0.478E-02  0.939E-03  0.145E-02  0.145E-02  0.939E-03
   9.157  0.417E-02  0.742E-03  0.134E-02  0.134E-02  0.742E-03
   9.159  0.312E-02  0.539E-03  0.102E-02  0.102E-02  0.539E-03
   9.161  0.398E-03  0.685E-04  0.130E-03  0.130E-03  0.685E-04
   9.163  0.156E-03  0.296E-04  0.486E-04  0.486E-04  0.296E-04
   9.165  0.235E-02  0.447E-03  0.730E-03  0.730E-03  0.447E-03
   9.167  0.504E-02  0.956E-03  0.156E-02  0.156E-02  0.956E-03
   9.169  0.263E-02  0.427E-03  0.888E-03  0.888E-03  0.427E-03
   9.171  0.909E-02  0.117E-02  0.337E-02  0.337E-02  0.117E-02
   9.173  0.944E-02  0.122E-02  0.350E-02  0.350E-02  0.122E-02
   9.175  0.358E-02  0.601E-03  0.119E-02  0.119E-02  0.601E-03
   9.177  0.678E-02  0.130E-02  0.210E-02  0.210E-02  0.130E-02
   9.179  0.440E-02  0.994E-03  0.121E-02  0.121E-02  0.994E-03
   9.181  0.501E-02  0.139E-02  0.112E-02  0.112E-02  0.139E-02
   9.183  0.184E-02  0.514E-03  0.404E-03  0.404E-03  0.514E-03
   9.185  0.937E-04  0.262E-04  0.206E-04  0.206E-04  0.262E-04
   9.187  0.647E-06  0.181E-06  0.142E-06  0.142E-06  0.181E-06
   9.189  0.604E-09  0.169E-09  0.133E-09  0.133E-09  0.169E-09
   9.191  0.533E-11  0.701E-12  0.196E-11  0.196E-11  0.701E-12
   9.193  0.207E-07  0.267E-08  0.766E-08  0.766E-08  0.267E-08
   9.195  0.110E-04  0.142E-05  0.407E-05  0.407E-05  0.142E-05
   9.197  0.790E-03  0.102E-03  0.293E-03  0.293E-03  0.102E-03
   9.199  0.770E-02  0.996E-03  0.285E-02  0.285E-02  0.996E-03
   9.201  0.102E-01  0.131E-02  0.376E-02  0.376E-02  0.131E-02
   9.203  0.194E-02  0.260E-03  0.711E-03  0.711E-03  0.260E-03
   9.205  0.202E-02  0.397E-03  0.615E-03  0.615E-03  0.397E-03
   9.207  0.400E-02  0.790E-03  0.121E-02  0.121E-02  0.790E-03
   9.209  0.109E-02  0.216E-03  0.331E-03  0.331E-03  0.216E-03
   9.211  0.405E-04  0.800E-05  0.123E-04  0.123E-04  0.800E-05
   9.213  0.203E-06  0.401E-07  0.614E-07  0.614E-07  0.401E-07
   9.215  0.625E-09  0.120E-09  0.192E-09  0.192E-09  0.120E-09
   9.217  0.594E-06  0.113E-06  0.184E-06  0.184E-06  0.113E-06
   9.219  0.980E-04  0.187E-04  0.303E-04  0.303E-04  0.187E-04
   9.221  0.219E-02  0.418E-03  0.676E-03  0.676E-03  0.418E-03
   9.223  0.660E-02  0.126E-02  0.204E-02  0.204E-02  0.126E-02
   9.225  0.270E-02  0.516E-03  0.835E-03  0.835E-03  0.516E-03
   9.227  0.465E-03  0.695E-04  0.163E-03  0.163E-03  0.695E-04
   9.229  0.511E-02  0.665E-03  0.189E-02  0.189E-02  0.665E-03
   9.231  0.112E-01  0.146E-02  0.414E-02  0.414E-02  0.146E-02
   9.233  0.332E-02  0.432E-03  0.123E-02  0.123E-02  0.432E-03
   9.235  0.133E-03  0.173E-04  0.493E-04  0.493E-04  0.173E-04
   9.237  0.150E-05  0.306E-06  0.445E-06  0.445E-06  0.306E-06
   9.239  0.111E-03  0.296E-04  0.259E-04  0.259E-04  0.296E-04
   9.241  0.231E-02  0.590E-03  0.563E-03  0.563E-03  0.590E-03
   9.243  0.752E-02  0.177E-02  0.199E-02  0.199E-02  0.177E-02
   9.245  0.414E-02  0.869E-03  0.120E-02  0.120E-02  0.869E-03
   9.247  0.386E-03  0.730E-04  0.120E-03  0.120E-03  0.730E-04
   9.249  0.564E-05  0.100E-05  0.182E-05  0.182E-05  0.100E-05
   9.251  0.193E-07  0.350E-08  0.614E-08  0.614E-08  0.350E-08
   9.253  0.376E-05  0.737E-06  0.114E-05  0.114E-05  0.737E-06
   9.255  0.277E-03  0.541E-04  0.843E-04  0.843E-04  0.541E-04
   9.257  0.322E-02  0.626E-03  0.985E-03  0.985E-03  0.626E-03
   9.259  0.730E-02  0.140E-02  0.225E-02  0.225E-02  0.140E-02
   9.261  0.563E-02  0.936E-03  0.188E-02  0.188E-02  0.936E-03
   9.263  0.106E-01  0.141E-02  0.391E-02  0.391E-02  0.141E-02
   9.265  0.638E-02  0.836E-03  0.236E-02  0.236E-02  0.836E-03
   9.267  0.934E-03  0.147E-03  0.320E-03  0.320E-03  0.147E-03
   9.269  0.418E-02  0.802E-03  0.129E-02  0.129E-02  0.802E-03
   9.271  0.586E-02  0.112E-02  0.181E-02  0.181E-02  0.112E-02
   9.273  0.111E-02  0.214E-03  0.343E-03  0.343E-03  0.214E-03
   9.275  0.286E-04  0.550E-05  0.882E-05  0.882E-05  0.550E-05
   9.277  0.997E-07  0.191E-07  0.307E-07  0.307E-07  0.191E-07
   9.279  0.469E-10  0.901E-11  0.145E-10  0.145E-10  0.901E-11
   9.281  0.299E-14  0.574E-15  0.922E-15  0.922E-15  0.574E-15
   9.283  0.258E-19  0.495E-20  0.795E-20  0.795E-20  0.495E-20
   9.285  0.000E+00  0.000E+00  0.000E+00  0.000E+00  0.000E+00
   9.287  0.749E-16  0.986E-17  0.276E-16  0.276E-16  0.986E-17
   9.289  0.251E-11  0.331E-12  0.924E-12  0.924E-12  0.331E-12
   9.291  0.114E-07  0.150E-08  0.419E-08  0.419E-08  0.150E-08
   9.293  0.698E-05  0.920E-06  0.257E-05  0.257E-05  0.920E-06
   9.295  0.580E-03  0.764E-04  0.214E-03  0.214E-03  0.764E-04
   9.297  0.652E-02  0.858E-03  0.240E-02  0.240E-02  0.858E-03
   9.299  0.995E-02  0.132E-02  0.366E-02  0.366E-02  0.132E-02
   9.301  0.307E-02  0.548E-03  0.988E-03  0.988E-03  0.548E-03
   9.303  0.415E-02  0.112E-02  0.958E-03  0.958E-03  0.112E-02
   9.305  0.257E-02  0.667E-03  0.616E-03  0.616E-03  0.667E-03
   9.307  0.249E-02  0.498E-03  0.749E-03  0.749E-03  0.498E-03
   9.309  0.196E-02  0.382E-03  0.597E-03  0.597E-03  0.382E-03
   9.311  0.222E-03  0.432E-04  0.676E-04  0.676E-04  0.432E-04
   9.313  0.755E-05  0.146E-05  0.231E-05  0.231E-05  0.146E-05
   9.315  0.345E-03  0.666E-04  0.106E-03  0.106E-03  0.666E-04
   9.317  0.395E-02  0.760E-03  0.121E-02  0.121E-02  0.760E-03
   9.319  0.708E-02  0.134E-02  0.220E-02  0.220E-02  0.134E-02
   9.321  0.385E-02  0.677E-03  0.125E-02  0.125E-02  0.677E-03
   9.323  0.831E-03  0.140E-03  0.275E-03  0.275E-03  0.140E-03
   9.325  0.327E-04  0.550E-05  0.109E-04  0.109E-04  0.550E-05
   9.327  0.181E-06  0.304E-07  0.601E-07  0.601E-07  0.304E-07
   9.329  0.320E-06  0.424E-07  0.118E-06  0.118E-06  0.424E-07
   9.331  0.744E-04  0.986E-05  0.273E-04  0.273E-04  0.986E-05
   9.333  0.234E-02  0.310E-03  0.860E-03  0.860E-03  0.310E-03
   9.335  0.997E-02  0.132E-02  0.366E-02  0.366E-02  0.132E-02
   9.337  0.575E-02  0.762E-03  0.211E-02  0.211E-02  0.762E-03
   9.339  0.449E-03  0.595E-04  0.165E-03  0.165E-03  0.595E-04
   9.341  0.477E-05  0.634E-06  0.175E-05  0.175E-05  0.634E-06
   9.343  0.103E-04  0.195E-05  0.321E-05  0.321E-05  0.195E-05
   9.345  0.501E-03  0.948E-04  0.156E-03  0.156E-03  0.948E-04
   9.347  0.329E-02  0.623E-03  0.102E-02  0.102E-02  0.623E-03
   9.349  0.294E-02  0.555E-03  0.913E-03  0.913E-03  0.555E-03
   9.351  0.620E-03  0.119E-03  0.192E-03  0.192E-03  0.119E-03
   9.353  0.171E-02  0.332E-03  0.524E-03  0.524E-03  0.332E-03
   9.355  0.166E-02  0.335E-03  0.494E-03  0.494E-03  0.335E-03
   9.357  0.225E-02  0.590E-03  0.535E-03  0.535E-03  0.590E-03
   9.359  0.314E-02  0.841E-03  0.729E-03  0.729E-03  0.841E-03
   9.361  0.643E-03  0.172E-03  0.149E-03  0.149E-03  0.172E-03
   9.363  0.227E-03  0.453E-04  0.679E-04  0.679E-04  0.453E-04
   9.365  0.307E-02  0.597E-03  0.938E-03  0.938E-03  0.597E-03
   9.367  0.611E-02  0.119E-02  0.187E-02  0.187E-02  0.119E-02
   9.369  0.165E-02  0.320E-03  0.504E-03  0.504E-03  0.320E-03
   9.371  0.494E-03  0.696E-04  0.177E-03  0.177E-03  0.696E-04
   9.373  0.557E-02  0.744E-03  0.204E-02  0.204E-02  0.744E-03
   9.375  0.968E-02  0.129E-02  0.355E-02  0.355E-02  0.129E-02
   9.377  0.228E-02  0.304E-03  0.835E-03  0.835E-03  0.304E-03
   9.379  0.183E-03  0.282E-04  0.635E-04  0.635E-04  0.282E-04
   9.381  0.111E-02  0.186E-03  0.370E-03  0.370E-03  0.186E-03
   9.383  0.150E-02  0.251E-03  0.501E-03  0.501E-03  0.251E-03
   9.385  0.276E-03  0.461E-04  0.919E-04  0.919E-04  0.461E-04
   9.387  0.685E-05  0.115E-05  0.228E-05  0.228E-05  0.115E-05
   9.389  0.168E-05  0.324E-06  0.518E-06  0.518E-06  0.324E-06
   9.391  0.107E-03  0.207E-04  0.329E-04  0.329E-04  0.207E-04
   9.393  0.937E-03  0.181E-03  0.288E-03  0.288E-03  0.181E-03
   9.395  0.111E-02  0.214E-03  0.340E-03  0.340E-03  0.214E-03
   9.397  0.178E-03  0.343E-04  0.546E-04  0.546E-04  0.343E-04
   9.399  0.605E-04  0.158E-04  0.144E-04  0.144E-04  0.158E-04
   9.401  0.976E-03  0.260E-03  0.228E-03  0.228E-03  0.260E-03
   9.403  0.228E-02  0.605E-03  0.533E-03  0.533E-03  0.605E-03
   9.405  0.718E-03  0.191E-03  0.168E-03  0.168E-03  0.191E-03
   9.407  0.307E-04  0.816E-05  0.719E-05  0.719E-05  0.816E-05
   9.409  0.204E-04  0.399E-05  0.619E-05  0.619E-05  0.399E-05
   9.411  0.917E-03  0.177E-03  0.281E-03  0.281E-03  0.177E-03
   9.413  0.681E-02  0.123E-02  0.217E-02  0.217E-02  0.123E-02
   9.415  0.129E-01  0.199E-02  0.447E-02  0.447E-02  0.199E-02
   9.417  0.711E-02  0.100E-02  0.255E-02  0.255E-02  0.100E-02
   9.419  0.292E-02  0.526E-03  0.937E-03  0.937E-03  0.526E-03
   9.421  0.235E-02  0.449E-03  0.726E-03  0.726E-03  0.449E-03
   9.423  0.928E-03  0.164E-03  0.300E-03  0.300E-03  0.164E-03
   9.425  0.117E-02  0.208E-03  0.376E-03  0.376E-03  0.208E-03
   9.427  0.654E-03  0.123E-03  0.204E-03  0.204E-03  0.123E-03
   9.429  0.106E-03  0.219E-04  0.313E-04  0.313E-04  0.219E-04
   9.431  0.419E-03  0.111E-03  0.985E-04  0.985E-04  0.111E-03
   9.433  0.112E-02  0.298E-03  0.263E-03  0.263E-03  0.298E-03
   9.435  0.409E-03  0.109E-03  0.959E-04  0.959E-04  0.109E-03
   9.437  0.202E-04  0.535E-05  0.473E-05  0.473E-05  0.535E-05
   9.439  0.134E-06  0.357E-07  0.315E-07  0.315E-07  0.357E-07
   9.441  0.546E-07  0.995E-08  0.173E-07  0.173E-07  0.995E-08
   9.443  0.766E-05  0.139E-05  0.244E-05  0.244E-05  0.139E-05
   9.445  0.150E-03  0.274E-04  0.476E-04  0.476E-04  0.274E-04
   9.447  0.471E-03  0.922E-04  0.143E-03  0.143E-03  0.922E-04
   9.449  0.426E-03  0.101E-03  0.112E-03  0.112E-03  0.101E-03
   9.451  0.136E-03  0.354E-04  0.326E-04  0.326E-04  0.354E-04
   9.453  0.252E-03  0.502E-04  0.760E-04  0.760E-04  0.502E-04
   9.455  0.338E-02  0.651E-03  0.104E-02  0.104E-02  0.651E-03
   9.457  0.103E-01  0.176E-02  0.337E-02  0.337E-02  0.176E-02
   9.459  0.123E-01  0.187E-02  0.431E-02  0.431E-02  0.187E-02
   9.461  0.359E-02  0.544E-03  0.125E-02  0.125E-02  0.544E-03
   9.463  0.376E-03  0.698E-04  0.118E-03  0.118E-03  0.698E-04
   9.465  0.624E-03  0.133E-03  0.179E-03  0.179E-03  0.133E-03
   9.467  0.546E-03  0.115E-03  0.158E-03  0.158E-03  0.115E-03
   9.469  0.459E-03  0.941E-04  0.135E-03  0.135E-03  0.941E-04
   9.471  0.166E-03  0.331E-04  0.501E-04  0.501E-04  0.331E-04
   9.473  0.165E-03  0.310E-04  0.516E-04  0.516E-04  0.310E-04
   9.475  0.643E-04  0.120E-04  0.201E-04  0.201E-04  0.120E-04
   9.477  0.408E-05  0.773E-06  0.127E-05  0.127E-05  0.773E-06
   9.479  0.510E-04  0.104E-04  0.152E-04  0.152E-04  0.104E-04
   9.481  0.576E-03  0.117E-03  0.171E-03  0.171E-03  0.117E-03
   9.483  0.890E-03  0.181E-03  0.264E-03  0.264E-03  0.181E-03
   9.485  0.681E-03  0.136E-03  0.204E-03  0.204E-03  0.136E-03
   9.487  0.370E-02  0.735E-03  0.112E-02  0.112E-02  0.735E-03
   9.489  0.372E-02  0.740E-03  0.112E-02  0.112E-02  0.740E-03
   9.491  0.538E-03  0.107E-03  0.162E-03  0.162E-03  0.107E-03
   9.493  0.629E-03  0.127E-03  0.187E-03  0.187E-03  0.127E-03
   9.495  0.173E-02  0.349E-03  0.514E-03  0.514E-03  0.349E-03
   9.497  0.961E-03  0.194E-03  0.287E-03  0.287E-03  0.194E-03
   9.499  0.237E-02  0.474E-03  0.711E-03  0.711E-03  0.474E-03
   9.501  0.373E-02  0.655E-03  0.121E-02  0.121E-02  0.655E-03
   9.503  0.836E-02  0.116E-02  0.302E-02  0.302E-02  0.116E-02
   9.505  0.625E-02  0.865E-03  0.226E-02  0.226E-02  0.865E-03
   9.507  0.104E-02  0.163E-03  0.355E-03  0.355E-03  0.163E-03
   9.509  0.118E-03  0.216E-04  0.372E-04  0.372E-04  0.216E-04
   9.511  0.382E-05  0.714E-06  0.120E-05  0.120E-05  0.714E-06
   9.513  0.179E-07  0.336E-08  0.561E-08  0.561E-08  0.336E-08
   9.515  0.114E-10  0.214E-11  0.358E-11  0.358E-11  0.214E-11
   9.517  0.989E-15  0.185E-15  0.309E-15  0.309E-15  0.185E-15
   9.519  0.492E-15  0.920E-16  0.154E-15  0.154E-15  0.920E-16
   9.521  0.695E-11  0.130E-11  0.218E-11  0.218E-11  0.130E-11
   9.523  0.133E-07  0.248E-08  0.416E-08  0.416E-08  0.248E-08
   9.525  0.344E-05  0.643E-06  0.108E-05  0.108E-05  0.643E-06
   9.527  0.120E-03  0.225E-04  0.377E-04  0.377E-04  0.225E-04
   9.529  0.571E-03  0.107E-03  0.179E-03  0.179E-03  0.107E-03
   9.531  0.366E-03  0.684E-04  0.115E-03  0.115E-03  0.684E-04
   9.533  0.318E-04  0.594E-05  0.995E-05  0.995E-05  0.594E-05
   9.535  0.373E-06  0.697E-07  0.117E-06  0.117E-06  0.697E-07
   9.537  0.594E-09  0.111E-09  0.186E-09  0.186E-09  0.111E-09
   9.539  0.128E-12  0.239E-13  0.400E-13  0.400E-13  0.239E-13
   9.541  0.263E-11  0.362E-12  0.956E-12  0.956E-12  0.362E-12
   9.543  0.113E-07  0.155E-08  0.410E-08  0.410E-08  0.155E-08
   9.545  0.655E-05  0.898E-06  0.237E-05  0.237E-05  0.898E-06
   9.547  0.514E-03  0.705E-04  0.186E-03  0.186E-03  0.705E-04
   9.549  0.545E-02  0.749E-03  0.198E-02  0.198E-02  0.749E-03
   9.551  0.784E-02  0.108E-02  0.284E-02  0.284E-02  0.108E-02
   9.553  0.157E-02  0.217E-03  0.567E-03  0.567E-03  0.217E-03
   9.555  0.533E-03  0.972E-04  0.169E-03  0.169E-03  0.972E-04
   9.557  0.745E-03  0.139E-03  0.234E-03  0.234E-03  0.139E-03
   9.559  0.153E-03  0.284E-04  0.479E-04  0.479E-04  0.284E-04
   9.561  0.422E-05  0.786E-06  0.133E-05  0.133E-05  0.786E-06
   9.563  0.158E-07  0.295E-08  0.497E-08  0.497E-08  0.295E-08
   9.565  0.804E-11  0.150E-11  0.252E-11  0.252E-11  0.150E-11
   9.567  0.552E-15  0.103E-15  0.173E-15  0.173E-15  0.103E-15
   9.569  0.513E-20  0.954E-21  0.161E-20  0.161E-20  0.954E-21
   9.571  0.000E+00  0.000E+00  0.000E+00  0.000E+00  0.000E+00
   9.573  0.000E+00  0.000E+00  0.000E+00  0.000E+00  0.000E+00
   9.575  0.970E-18  0.175E-18  0.310E-18  0.310E-18  0.175E-18
   9.577  0.457E-13  0.826E-14  0.146E-13  0.146E-13  0.826E-14
   9.579  0.291E-09  0.527E-10  0.930E-10  0.930E-10  0.527E-10
   9.581  0.252E-06  0.455E-07  0.803E-07  0.803E-07  0.455E-07
   9.583  0.294E-04  0.531E-05  0.938E-05  0.938E-05  0.531E-05
   9.585  0.465E-03  0.840E-04  0.148E-03  0.148E-03  0.840E-04
   9.587  0.994E-03  0.180E-03  0.317E-03  0.317E-03  0.180E-03
   9.589  0.288E-03  0.520E-04  0.919E-04  0.919E-04  0.520E-04
   9.591  0.123E-04  0.217E-05  0.396E-05  0.396E-05  0.217E-05
   9.593  0.142E-03  0.193E-04  0.517E-04  0.517E-04  0.193E-04
   9.595  0.275E-02  0.374E-03  0.100E-02  0.100E-02  0.374E-03
   9.597  0.720E-02  0.979E-03  0.262E-02  0.262E-02  0.979E-03
   9.599  0.255E-02  0.347E-03  0.928E-03  0.928E-03  0.347E-03
   9.601  0.122E-03  0.166E-04  0.445E-04  0.445E-04  0.166E-04
   9.603  0.794E-06  0.108E-06  0.289E-06  0.289E-06  0.108E-06
   9.605  0.697E-09  0.949E-10  0.254E-09  0.254E-09  0.949E-10
   9.607  0.829E-13  0.113E-13  0.302E-13  0.302E-13  0.113E-13
   9.609  0.133E-17  0.181E-18  0.485E-18  0.485E-18  0.181E-18
   9.611  0.000E+00  0.000E+00  0.000E+00  0.000E+00  0.000E+00
   9.613  0.173E-19  0.300E-20  0.566E-20  0.566E-20  0.300E-20
   9.615  0.187E-14  0.323E-15  0.610E-15  0.610E-15  0.323E-15
   9.617  0.272E-10  0.471E-11  0.891E-11  0.891E-11  0.471E-11
   9.619  0.538E-07  0.931E-08  0.176E-07  0.176E-07  0.931E-08
   9.621  0.144E-04  0.249E-05  0.470E-05  0.470E-05  0.249E-05
   9.623  0.520E-03  0.900E-04  0.170E-03  0.170E-03  0.900E-04
   9.625  0.255E-02  0.440E-03  0.832E-03  0.832E-03  0.440E-03
   9.627  0.169E-02  0.292E-03  0.551E-03  0.551E-03  0.292E-03
   9.629  0.151E-03  0.262E-04  0.494E-04  0.494E-04  0.262E-04
   9.631  0.183E-05  0.317E-06  0.600E-06  0.600E-06  0.317E-06
   9.633  0.301E-08  0.521E-09  0.985E-09  0.985E-09  0.521E-09
   9.635  0.669E-12  0.116E-12  0.219E-12  0.219E-12  0.116E-12
   9.637  0.201E-16  0.348E-17  0.658E-17  0.658E-17  0.348E-17
   9.639  0.132E-18  0.189E-19  0.474E-19  0.474E-19  0.189E-19
   9.641  0.123E-13  0.175E-14  0.440E-14  0.440E-14  0.175E-14
   9.643  0.155E-09  0.220E-10  0.553E-10  0.553E-10  0.220E-10
   9.645  0.263E-06  0.375E-07  0.941E-07  0.941E-07  0.375E-07
   9.647  0.608E-04  0.867E-05  0.217E-04  0.217E-04  0.867E-05
   9.649  0.192E-02  0.275E-03  0.685E-03  0.685E-03  0.275E-03
   9.651  0.857E-02  0.125E-02  0.303E-02  0.303E-02  0.125E-02
   9.653  0.618E-02  0.963E-03  0.213E-02  0.213E-02  0.963E-03
   9.655  0.150E-02  0.274E-03  0.475E-03  0.475E-03  0.274E-03
   9.657  0.332E-03  0.653E-04  0.101E-03  0.101E-03  0.653E-04
   9.659  0.203E-03  0.381E-04  0.636E-04  0.636E-04  0.381E-04
   9.661  0.146E-02  0.273E-03  0.459E-03  0.459E-03  0.273E-03
   9.663  0.157E-02  0.292E-03  0.492E-03  0.492E-03  0.292E-03
   9.665  0.227E-03  0.423E-04  0.713E-04  0.713E-04  0.423E-04
   9.667  0.446E-05  0.831E-06  0.140E-05  0.140E-05  0.831E-06
   9.669  0.178E-05  0.389E-06  0.501E-06  0.501E-06  0.389E-06
   9.671  0.795E-04  0.173E-04  0.224E-04  0.224E-04  0.173E-04
   9.673  0.662E-03  0.139E-03  0.192E-03  0.192E-03  0.139E-03
   9.675  0.227E-02  0.445E-03  0.689E-03  0.689E-03  0.445E-03
   9.677  0.233E-02  0.449E-03  0.716E-03  0.716E-03  0.449E-03
   9.679  0.372E-03  0.715E-04  0.114E-03  0.114E-03  0.715E-04
   9.681  0.814E-05  0.157E-05  0.251E-05  0.251E-05  0.157E-05
   9.683  0.242E-07  0.464E-08  0.744E-08  0.744E-08  0.464E-08
   9.685  0.970E-11  0.186E-11  0.299E-11  0.299E-11  0.186E-11
   9.687  0.527E-15  0.101E-15  0.162E-15  0.162E-15  0.101E-15
   9.689  0.419E-19  0.973E-20  0.112E-19  0.112E-19  0.973E-20
   9.691  0.278E-14  0.658E-15  0.732E-15  0.732E-15  0.658E-15
   9.693  0.276E-10  0.652E-11  0.728E-11  0.728E-11  0.652E-11
   9.695  0.377E-07  0.885E-08  0.100E-07  0.100E-07  0.885E-08
   9.697  0.766E-05  0.172E-05  0.211E-05  0.211E-05  0.172E-05
   9.699  0.312E-03  0.601E-04  0.960E-04  0.960E-04  0.601E-04
   9.701  0.367E-02  0.584E-03  0.125E-02  0.125E-02  0.584E-03
   9.703  0.983E-02  0.150E-02  0.341E-02  0.341E-02  0.150E-02
   9.705  0.468E-02  0.747E-03  0.159E-02  0.159E-02  0.747E-03
   9.707  0.396E-03  0.677E-04  0.130E-03  0.130E-03  0.677E-04
   9.709  0.584E-05  0.105E-05  0.187E-05  0.187E-05  0.105E-05
   9.711  0.137E-07  0.252E-08  0.432E-08  0.432E-08  0.252E-08
   9.713  0.466E-11  0.868E-12  0.146E-11  0.146E-11  0.868E-12
   9.715  0.304E-13  0.582E-14  0.940E-14  0.940E-14  0.582E-14
   9.717  0.273E-09  0.522E-10  0.842E-10  0.842E-10  0.522E-10
   9.719  0.333E-06  0.637E-07  0.103E-06  0.103E-06  0.637E-07
   9.721  0.550E-04  0.105E-04  0.170E-04  0.170E-04  0.105E-04
   9.723  0.123E-02  0.236E-03  0.380E-03  0.380E-03  0.236E-03
   9.725  0.373E-02  0.713E-03  0.115E-02  0.115E-02  0.713E-03
   9.727  0.153E-02  0.292E-03  0.472E-03  0.472E-03  0.292E-03
   9.729  0.855E-04  0.164E-04  0.263E-04  0.263E-04  0.164E-04
   9.731  0.509E-04  0.125E-04  0.129E-04  0.129E-04  0.125E-04
   9.733  0.452E-03  0.111E-03  0.115E-03  0.115E-03  0.111E-03
   9.735  0.551E-03  0.136E-03  0.140E-03  0.140E-03  0.136E-03
   9.737  0.908E-04  0.224E-04  0.230E-04  0.230E-04  0.224E-04
   9.739  0.203E-05  0.499E-06  0.513E-06  0.513E-06  0.499E-06
   9.741  0.613E-08  0.151E-08  0.155E-08  0.155E-08  0.151E-08
   9.743  0.306E-07  0.574E-08  0.957E-08  0.957E-08  0.574E-08
   9.745  0.936E-05  0.175E-05  0.292E-05  0.292E-05  0.175E-05
   9.747  0.387E-03  0.725E-04  0.121E-03  0.121E-03  0.725E-04
   9.749  0.216E-02  0.406E-03  0.677E-03  0.677E-03  0.406E-03
   9.751  0.164E-02  0.308E-03  0.514E-03  0.514E-03  0.308E-03
   9.753  0.445E-03  0.714E-04  0.151E-03  0.151E-03  0.714E-04
   9.755  0.388E-02  0.559E-03  0.138E-02  0.138E-02  0.559E-03
   9.757  0.735E-02  0.106E-02  0.262E-02  0.262E-02  0.106E-02
   9.759  0.189E-02  0.272E-03  0.672E-03  0.672E-03  0.272E-03
   9.761  0.655E-04  0.944E-05  0.233E-04  0.233E-04  0.944E-05
   9.763  0.308E-06  0.444E-07  0.110E-06  0.110E-06  0.444E-07
   9.765  0.340E-07  0.854E-08  0.844E-08  0.844E-08  0.854E-08
   9.767  0.697E-05  0.176E-05  0.173E-05  0.173E-05  0.176E-05
   9.769  0.195E-03  0.492E-04  0.483E-04  0.483E-04  0.492E-04
   9.771  0.738E-03  0.186E-03  0.183E-03  0.183E-03  0.186E-03
   9.773  0.378E-03  0.952E-04  0.936E-04  0.936E-04  0.952E-04
   9.775  0.506E-04  0.116E-04  0.137E-04  0.137E-04  0.116E-04
   9.777  0.722E-03  0.148E-03  0.212E-03  0.212E-03  0.148E-03
   9.779  0.289E-02  0.594E-03  0.850E-03  0.850E-03  0.594E-03
   9.781  0.156E-02  0.322E-03  0.460E-03  0.460E-03  0.322E-03
   9.783  0.115E-03  0.236E-04  0.337E-04  0.337E-04  0.236E-04
   9.785  0.114E-05  0.234E-06  0.335E-06  0.335E-06  0.234E-06
   9.787  0.603E-07  0.132E-07  0.170E-07  0.170E-07  0.132E-07
   9.789  0.168E-04  0.361E-05  0.480E-05  0.480E-05  0.361E-05
   9.791  0.726E-03  0.151E-03  0.211E-03  0.211E-03  0.151E-03
   9.793  0.488E-02  0.986E-03  0.146E-02  0.146E-02  0.986E-03
   9.795  0.521E-02  0.102E-02  0.158E-02  0.158E-02  0.102E-02
   9.797  0.210E-02  0.397E-03  0.652E-03  0.652E-03  0.397E-03
   9.799  0.278E-02  0.520E-03  0.868E-03  0.868E-03  0.520E-03
   9.801  0.800E-03  0.150E-03  0.250E-03  0.250E-03  0.150E-03
   9.803  0.100E-03  0.192E-04  0.308E-04  0.308E-04  0.192E-04
   9.805  0.146E-02  0.283E-03  0.445E-03  0.445E-03  0.283E-03
   9.807  0.419E-02  0.814E-03  0.128E-02  0.128E-02  0.814E-03
   9.809  0.267E-02  0.479E-03  0.855E-03  0.855E-03  0.479E-03
   9.811  0.685E-02  0.108E-02  0.235E-02  0.235E-02  0.108E-02
   9.813  0.591E-02  0.931E-03  0.202E-02  0.202E-02  0.931E-03
   9.815  0.698E-03  0.110E-03  0.239E-03  0.239E-03  0.110E-03
   9.817  0.112E-04  0.177E-05  0.381E-05  0.381E-05  0.177E-05
   9.819  0.298E-06  0.730E-07  0.759E-07  0.759E-07  0.730E-07
   9.821  0.301E-04  0.761E-05  0.743E-05  0.743E-05  0.761E-05
   9.823  0.447E-03  0.113E-03  0.111E-03  0.111E-03  0.113E-03
   9.825  0.902E-03  0.228E-03  0.223E-03  0.223E-03  0.228E-03
   9.827  0.350E-03  0.870E-04  0.879E-04  0.879E-04  0.870E-04
   9.829  0.112E-02  0.268E-03  0.291E-03  0.291E-03  0.268E-03
   9.831  0.243E-02  0.594E-03  0.623E-03  0.623E-03  0.594E-03
   9.833  0.242E-02  0.600E-03  0.609E-03  0.609E-03  0.600E-03
   9.835  0.635E-03  0.157E-03  0.160E-03  0.160E-03  0.157E-03
   9.837  0.250E-04  0.613E-05  0.634E-05  0.634E-05  0.613E-05
   9.839  0.135E-06  0.329E-07  0.344E-07  0.344E-07  0.329E-07
   9.841  0.988E-10  0.240E-10  0.254E-10  0.254E-10  0.240E-10
   9.843  0.448E-09  0.842E-10  0.140E-09  0.140E-09  0.842E-10
   9.845  0.465E-06  0.877E-07  0.145E-06  0.145E-06  0.877E-07
   9.847  0.658E-04  0.125E-04  0.204E-04  0.204E-04  0.125E-04
   9.849  0.128E-02  0.247E-03  0.391E-03  0.391E-03  0.247E-03
   9.851  0.347E-02  0.703E-03  0.103E-02  0.103E-02  0.703E-03
   9.853  0.157E-02  0.354E-03  0.433E-03  0.433E-03  0.354E-03
   9.855  0.990E-03  0.255E-03  0.240E-03  0.240E-03  0.255E-03
   9.857  0.550E-03  0.142E-03  0.133E-03  0.133E-03  0.142E-03
   9.859  0.158E-03  0.376E-04  0.414E-04  0.414E-04  0.376E-04
   9.861  0.148E-02  0.341E-03  0.401E-03  0.401E-03  0.341E-03
   9.863  0.264E-02  0.605E-03  0.713E-03  0.713E-03  0.605E-03
   9.865  0.103E-02  0.203E-03  0.311E-03  0.311E-03  0.203E-03
   9.867  0.436E-02  0.644E-03  0.154E-02  0.154E-02  0.644E-03
   9.869  0.643E-02  0.947E-03  0.227E-02  0.227E-02  0.947E-03
   9.871  0.129E-02  0.190E-03  0.456E-03  0.456E-03  0.190E-03
   9.873  0.123E-03  0.271E-04  0.342E-04  0.342E-04  0.271E-04
   9.875  0.873E-03  0.219E-03  0.218E-03  0.218E-03  0.219E-03
   9.877  0.191E-02  0.449E-03  0.504E-03  0.504E-03  0.449E-03
   9.879  0.639E-02  0.128E-02  0.191E-02  0.191E-02  0.128E-02
   9.881  0.904E-02  0.172E-02  0.280E-02  0.280E-02  0.172E-02
   9.883  0.247E-02  0.458E-03  0.777E-03  0.777E-03  0.458E-03
   9.885  0.114E-03  0.209E-04  0.359E-04  0.359E-04  0.209E-04
   9.887  0.777E-06  0.143E-06  0.246E-06  0.246E-06  0.143E-06
   9.889  0.746E-09  0.137E-09  0.236E-09  0.236E-09  0.137E-09
   9.891  0.981E-13  0.180E-13  0.311E-13  0.311E-13  0.180E-13
   9.893  0.355E-11  0.922E-12  0.851E-12  0.851E-12  0.922E-12
   9.895  0.895E-08  0.233E-08  0.215E-08  0.215E-08  0.233E-08
   9.897  0.305E-05  0.794E-06  0.733E-06  0.733E-06  0.794E-06
   9.899  0.141E-03  0.367E-04  0.339E-04  0.339E-04  0.367E-04
   9.901  0.889E-03  0.231E-03  0.214E-03  0.214E-03  0.231E-03
   9.903  0.111E-02  0.262E-03  0.292E-03  0.292E-03  0.262E-03
   9.905  0.279E-02  0.530E-03  0.867E-03  0.867E-03  0.530E-03
   9.907  0.275E-02  0.516E-03  0.859E-03  0.859E-03  0.516E-03
   9.909  0.384E-03  0.732E-04  0.119E-03  0.119E-03  0.732E-04
   9.911  0.168E-03  0.587E-04  0.255E-04  0.255E-04  0.587E-04
   9.913  0.552E-03  0.193E-03  0.834E-04  0.834E-04  0.193E-03
   9.915  0.112E-02  0.284E-03  0.277E-03  0.277E-03  0.284E-03
   9.917  0.384E-02  0.874E-03  0.105E-02  0.105E-02  0.874E-03
   9.919  0.223E-02  0.506E-03  0.609E-03  0.609E-03  0.506E-03
   9.921  0.219E-03  0.487E-04  0.608E-04  0.608E-04  0.487E-04
   9.923  0.139E-02  0.252E-03  0.442E-03  0.442E-03  0.252E-03
   9.925  0.696E-02  0.115E-02  0.233E-02  0.233E-02  0.115E-02
   9.927  0.521E-02  0.816E-03  0.179E-02  0.179E-02  0.816E-03
   9.929  0.555E-03  0.845E-04  0.193E-03  0.193E-03  0.845E-04
   9.931  0.820E-05  0.123E-05  0.287E-05  0.287E-05  0.123E-05
   9.933  0.165E-07  0.247E-08  0.580E-08  0.580E-08  0.247E-08
   9.935  0.454E-11  0.677E-12  0.159E-11  0.159E-11  0.677E-12
   9.937  0.169E-15  0.252E-16  0.593E-16  0.593E-16  0.252E-16
   9.939  0.155E-17  0.406E-18  0.370E-18  0.370E-18  0.406E-18
   9.941  0.688E-13  0.180E-13  0.164E-13  0.164E-13  0.180E-13
   9.943  0.412E-09  0.108E-09  0.983E-10  0.983E-10  0.108E-09
   9.945  0.335E-06  0.878E-07  0.799E-07  0.799E-07  0.878E-07
   9.947  0.373E-04  0.981E-05  0.886E-05  0.886E-05  0.981E-05
   9.949  0.593E-03  0.158E-03  0.138E-03  0.138E-03  0.158E-03
   9.951  0.157E-02  0.444E-03  0.340E-03  0.340E-03  0.444E-03
   9.953  0.934E-03  0.290E-03  0.177E-03  0.177E-03  0.290E-03
   9.955  0.127E-03  0.416E-04  0.219E-04  0.219E-04  0.416E-04
   9.957  0.296E-05  0.978E-06  0.504E-06  0.504E-06  0.978E-06
   9.959  0.156E-04  0.292E-05  0.487E-05  0.487E-05  0.292E-05
   9.961  0.628E-03  0.118E-03  0.196E-03  0.196E-03  0.118E-03
   9.963  0.343E-02  0.643E-03  0.107E-02  0.107E-02  0.643E-03
   9.965  0.253E-02  0.475E-03  0.791E-03  0.791E-03  0.475E-03
   9.967  0.253E-03  0.474E-04  0.791E-04  0.791E-04  0.474E-04
   9.969  0.102E-04  0.243E-05  0.267E-05  0.267E-05  0.243E-05
   9.971  0.204E-03  0.536E-04  0.481E-04  0.481E-04  0.536E-04
   9.973  0.828E-03  0.218E-03  0.196E-03  0.196E-03  0.218E-03
   9.975  0.471E-03  0.123E-03  0.113E-03  0.113E-03  0.123E-03
   9.977  0.808E-03  0.154E-03  0.250E-03  0.250E-03  0.154E-03
   9.979  0.611E-02  0.113E-02  0.192E-02  0.192E-02  0.113E-02
   9.981  0.124E-01  0.219E-02  0.403E-02  0.403E-02  0.219E-02
   9.983  0.112E-01  0.180E-02  0.379E-02  0.379E-02  0.180E-02
   9.985  0.283E-02  0.436E-03  0.980E-03  0.980E-03  0.436E-03
   9.987  0.123E-03  0.187E-04  0.430E-04  0.430E-04  0.187E-04
   9.989  0.164E-05  0.310E-06  0.508E-06  0.508E-06  0.310E-06
   9.991  0.119E-03  0.270E-04  0.327E-04  0.327E-04  0.270E-04
   9.993  0.230E-02  0.525E-03  0.624E-03  0.624E-03  0.525E-03
   9.995  0.630E-02  0.148E-02  0.167E-02  0.167E-02  0.148E-02
   9.997  0.265E-02  0.662E-03  0.662E-03  0.662E-03  0.662E-03
   9.999  0.330E-03  0.886E-04  0.763E-04  0.763E-04  0.886E-04
  10.001  0.959E-03  0.252E-03  0.227E-03  0.227E-03  0.252E-03
  10.003  0.880E-03  0.231E-03  0.209E-03  0.209E-03  0.231E-03
  10.005  0.110E-03  0.288E-04  0.260E-04  0.260E-04  0.288E-04
  10.007  0.185E-05  0.485E-06  0.438E-06  0.438E-06  0.485E-06
  10.009  0.421E-08  0.111E-08  0.999E-09  0.999E-09  0.111E-08
  10.011  0.135E-11  0.356E-12  0.321E-12  0.321E-12  0.356E-12
  10.013  0.316E-09  0.842E-10  0.740E-10  0.740E-10  0.842E-10
  10.015  0.243E-06  0.648E-07  0.569E-07  0.569E-07  0.648E-07
  10.017  0.254E-04  0.675E-05  0.594E-05  0.594E-05  0.675E-05
  10.019  0.375E-03  0.985E-04  0.893E-04  0.893E-04  0.985E-04
  10.021  0.141E-02  0.317E-03  0.386E-03  0.386E-03  0.317E-03
  10.023  0.398E-02  0.760E-03  0.123E-02  0.123E-02  0.760E-03
  10.025  0.270E-02  0.508E-03  0.845E-03  0.845E-03  0.508E-03
  10.027  0.259E-03  0.485E-04  0.809E-04  0.809E-04  0.485E-04
  10.029  0.345E-05  0.644E-06  0.108E-05  0.108E-05  0.644E-06
  10.031  0.283E-04  0.431E-05  0.983E-05  0.983E-05  0.431E-05
  10.033  0.119E-02  0.182E-03  0.415E-03  0.415E-03  0.182E-03
  10.035  0.681E-02  0.104E-02  0.237E-02  0.237E-02  0.104E-02
  10.037  0.527E-02  0.803E-03  0.183E-02  0.183E-02  0.803E-03
  10.039  0.932E-03  0.161E-03  0.305E-03  0.305E-03  0.161E-03
  10.041  0.474E-02  0.974E-03  0.140E-02  0.140E-02  0.974E-03
  10.043  0.110E-01  0.234E-02  0.316E-02  0.316E-02  0.234E-02
  10.045  0.659E-02  0.142E-02  0.187E-02  0.187E-02  0.142E-02
  10.047  0.654E-02  0.125E-02  0.202E-02  0.202E-02  0.125E-02
  10.049  0.753E-02  0.141E-02  0.235E-02  0.235E-02  0.141E-02
  10.051  0.659E-02  0.124E-02  0.205E-02  0.205E-02  0.124E-02
  10.053  0.116E-01  0.226E-02  0.355E-02  0.355E-02  0.226E-02
  10.055  0.118E-01  0.241E-02  0.352E-02  0.352E-02  0.241E-02
  10.057  0.445E-02  0.902E-03  0.132E-02  0.132E-02  0.902E-03
  10.059  0.774E-02  0.146E-02  0.241E-02  0.241E-02  0.146E-02
  10.061  0.956E-02  0.180E-02  0.298E-02  0.298E-02  0.180E-02
  10.063  0.344E-01  0.653E-02  0.107E-01  0.107E-01  0.653E-02
  10.065  0.320E-01  0.615E-02  0.987E-02  0.987E-02  0.615E-02
  10.067  0.480E-02  0.966E-03  0.143E-02  0.143E-02  0.966E-03
  10.069  0.217E-03  0.518E-04  0.566E-04  0.566E-04  0.518E-04
  10.071  0.461E-05  0.121E-05  0.109E-05  0.109E-05  0.121E-05
  10.073  0.624E-06  0.121E-06  0.192E-06  0.192E-06  0.121E-06
  10.075  0.640E-04  0.122E-04  0.198E-04  0.198E-04  0.122E-04
  10.077  0.917E-03  0.175E-03  0.284E-03  0.284E-03  0.175E-03
  10.079  0.178E-02  0.339E-03  0.550E-03  0.550E-03  0.339E-03
  10.081  0.496E-03  0.945E-04  0.153E-03  0.153E-03  0.945E-04
  10.083  0.978E-03  0.183E-03  0.306E-03  0.306E-03  0.183E-03
  10.085  0.432E-02  0.811E-03  0.135E-02  0.135E-02  0.811E-03
  10.087  0.263E-02  0.493E-03  0.822E-03  0.822E-03  0.493E-03
  10.089  0.217E-03  0.406E-04  0.677E-04  0.677E-04  0.406E-04
  10.091  0.129E-04  0.336E-05  0.308E-05  0.308E-05  0.336E-05
  10.093  0.408E-03  0.109E-03  0.950E-04  0.950E-04  0.109E-03
  10.095  0.241E-02  0.604E-03  0.601E-03  0.601E-03  0.604E-03
  10.097  0.224E-02  0.519E-03  0.602E-03  0.602E-03  0.519E-03
  10.099  0.353E-03  0.762E-04  0.100E-03  0.100E-03  0.762E-04
  10.101  0.767E-03  0.174E-03  0.210E-03  0.210E-03  0.174E-03
  10.103  0.323E-02  0.734E-03  0.882E-03  0.882E-03  0.734E-03
  10.105  0.186E-02  0.423E-03  0.508E-03  0.508E-03  0.423E-03
  10.107  0.181E-03  0.426E-04  0.482E-04  0.482E-04  0.426E-04
  10.109  0.654E-03  0.173E-03  0.154E-03  0.154E-03  0.173E-03
  10.111  0.169E-02  0.448E-03  0.399E-03  0.399E-03  0.448E-03
  10.113  0.676E-03  0.178E-03  0.160E-03  0.160E-03  0.178E-03
  10.115  0.402E-03  0.814E-04  0.119E-03  0.119E-03  0.814E-04
  10.117  0.124E-02  0.244E-03  0.379E-03  0.379E-03  0.244E-03
  10.119  0.580E-03  0.114E-03  0.176E-03  0.176E-03  0.114E-03
  10.121  0.365E-04  0.716E-05  0.111E-04  0.111E-04  0.716E-05
  10.123  0.312E-06  0.611E-07  0.949E-07  0.949E-07  0.611E-07
  10.125  0.360E-09  0.705E-10  0.110E-09  0.110E-09  0.705E-10
  10.127  0.563E-13  0.110E-13  0.171E-13  0.171E-13  0.110E-13
  10.129  0.129E-17  0.253E-18  0.392E-18  0.392E-18  0.253E-18
  10.131  0.703E-14  0.140E-14  0.211E-14  0.211E-14  0.140E-14
  10.133  0.662E-10  0.132E-10  0.199E-10  0.199E-10  0.132E-10
  10.135  0.845E-07  0.169E-07  0.254E-07  0.254E-07  0.169E-07
  10.137  0.146E-04  0.291E-05  0.438E-05  0.438E-05  0.291E-05
  10.139  0.340E-03  0.680E-04  0.102E-03  0.102E-03  0.680E-04
  10.141  0.108E-02  0.215E-03  0.323E-03  0.323E-03  0.215E-03
  10.143  0.461E-03  0.921E-04  0.139E-03  0.139E-03  0.921E-04
  10.145  0.168E-03  0.318E-04  0.521E-04  0.521E-04  0.318E-04
  10.147  0.231E-02  0.438E-03  0.717E-03  0.717E-03  0.438E-03
  10.149  0.573E-02  0.115E-02  0.172E-02  0.172E-02  0.115E-02
  10.151  0.331E-02  0.793E-03  0.861E-03  0.861E-03  0.793E-03
  10.153  0.680E-03  0.184E-03  0.156E-03  0.156E-03  0.184E-03
  10.155  0.830E-03  0.207E-03  0.208E-03  0.208E-03  0.207E-03
  10.157  0.288E-02  0.703E-03  0.739E-03  0.739E-03  0.703E-03
  10.159  0.185E-02  0.447E-03  0.476E-03  0.476E-03  0.447E-03
  10.161  0.172E-03  0.417E-04  0.445E-04  0.445E-04  0.417E-04
  10.163  0.877E-05  0.193E-05  0.246E-05  0.246E-05  0.193E-05
  10.165  0.298E-03  0.659E-04  0.833E-04  0.833E-04  0.659E-04
  10.167  0.207E-02  0.472E-03  0.563E-03  0.563E-03  0.472E-03
  10.169  0.214E-02  0.500E-03  0.570E-03  0.570E-03  0.500E-03
  10.171  0.335E-03  0.788E-04  0.888E-04  0.888E-04  0.788E-04
  10.173  0.160E-03  0.323E-04  0.478E-04  0.478E-04  0.323E-04
  10.175  0.356E-03  0.774E-04  0.101E-03  0.101E-03  0.774E-04
  10.177  0.262E-03  0.594E-04  0.718E-04  0.718E-04  0.594E-04
  10.179  0.155E-03  0.315E-04  0.460E-04  0.460E-04  0.315E-04
  10.181  0.166E-03  0.341E-04  0.488E-04  0.488E-04  0.341E-04
  10.183  0.161E-03  0.331E-04  0.477E-04  0.477E-04  0.331E-04
  10.185  0.396E-03  0.901E-04  0.108E-03  0.108E-03  0.901E-04
  10.187  0.979E-03  0.213E-03  0.276E-03  0.276E-03  0.213E-03
  10.189  0.100E-02  0.199E-03  0.302E-03  0.302E-03  0.199E-03
  10.191  0.285E-03  0.596E-04  0.831E-04  0.831E-04  0.596E-04
  10.193  0.332E-03  0.802E-04  0.858E-04  0.858E-04  0.802E-04
  10.195  0.117E-02  0.238E-03  0.347E-03  0.347E-03  0.238E-03
  10.197  0.204E-02  0.407E-03  0.612E-03  0.612E-03  0.407E-03
  10.199  0.111E-02  0.246E-03  0.310E-03  0.310E-03  0.246E-03
  10.201  0.910E-03  0.226E-03  0.229E-03  0.229E-03  0.226E-03
  10.203  0.256E-03  0.649E-04  0.631E-04  0.631E-04  0.649E-04
  10.205  0.263E-04  0.692E-05  0.625E-05  0.625E-05  0.692E-05
  10.207  0.510E-03  0.137E-03  0.118E-03  0.118E-03  0.137E-03
  10.209  0.261E-02  0.693E-03  0.614E-03  0.614E-03  0.693E-03
  10.211  0.403E-02  0.895E-03  0.112E-02  0.112E-02  0.895E-03
  10.213  0.655E-02  0.122E-02  0.205E-02  0.205E-02  0.122E-02
  10.215  0.303E-02  0.548E-03  0.968E-03  0.968E-03  0.548E-03
  10.217  0.359E-03  0.690E-04  0.110E-03  0.110E-03  0.690E-04
  10.219  0.456E-03  0.121E-03  0.107E-03  0.107E-03  0.121E-03
  10.221  0.163E-02  0.434E-03  0.379E-03  0.379E-03  0.434E-03
  10.223  0.281E-02  0.733E-03  0.671E-03  0.671E-03  0.733E-03
  10.225  0.292E-02  0.654E-03  0.807E-03  0.807E-03  0.654E-03
  10.227  0.639E-02  0.141E-02  0.179E-02  0.179E-02  0.141E-02
  10.229  0.426E-02  0.968E-03  0.116E-02  0.116E-02  0.968E-03
  10.231  0.180E-02  0.424E-03  0.474E-03  0.474E-03  0.424E-03
  10.233  0.888E-03  0.201E-03  0.243E-03  0.243E-03  0.201E-03
  10.235  0.120E-03  0.262E-04  0.337E-04  0.337E-04  0.262E-04
  10.237  0.277E-05  0.601E-06  0.783E-06  0.783E-06  0.601E-06
  10.239  0.350E-04  0.752E-05  0.996E-05  0.996E-05  0.752E-05
  10.241  0.103E-02  0.216E-03  0.300E-03  0.300E-03  0.216E-03
  10.243  0.495E-02  0.996E-03  0.148E-02  0.148E-02  0.996E-03
  10.245  0.558E-02  0.108E-02  0.171E-02  0.171E-02  0.108E-02
  10.247  0.296E-02  0.565E-03  0.915E-03  0.915E-03  0.565E-03
  10.249  0.503E-03  0.956E-04  0.156E-03  0.156E-03  0.956E-04
  10.251  0.471E-03  0.918E-04  0.144E-03  0.144E-03  0.918E-04
  10.253  0.674E-03  0.134E-03  0.203E-03  0.203E-03  0.134E-03
  10.255  0.596E-03  0.154E-03  0.144E-03  0.144E-03  0.154E-03
  10.257  0.894E-03  0.246E-03  0.201E-03  0.201E-03  0.246E-03
  10.259  0.403E-03  0.115E-03  0.867E-04  0.867E-04  0.115E-03
  10.261  0.102E-02  0.282E-03  0.230E-03  0.230E-03  0.282E-03
  10.263  0.148E-02  0.363E-03  0.378E-03  0.378E-03  0.363E-03
  10.265  0.570E-03  0.130E-03  0.155E-03  0.155E-03  0.130E-03
  10.267  0.150E-03  0.347E-04  0.401E-04  0.401E-04  0.347E-04
  10.269  0.185E-02  0.420E-03  0.505E-03  0.505E-03  0.420E-03
  10.271  0.538E-02  0.122E-02  0.147E-02  0.147E-02  0.122E-02
  10.273  0.295E-02  0.669E-03  0.806E-03  0.806E-03  0.669E-03
  10.275  0.197E-02  0.383E-03  0.604E-03  0.604E-03  0.383E-03
  10.277  0.690E-02  0.130E-02  0.215E-02  0.215E-02  0.130E-02
  10.279  0.591E-02  0.112E-02  0.183E-02  0.183E-02  0.112E-02
  10.281  0.116E-02  0.222E-03  0.357E-03  0.357E-03  0.222E-03
  10.283  0.524E-04  0.109E-04  0.153E-04  0.153E-04  0.109E-04
  10.285  0.364E-03  0.100E-03  0.820E-04  0.820E-04  0.100E-03
  10.287  0.205E-02  0.558E-03  0.465E-03  0.465E-03  0.558E-03
  10.289  0.199E-02  0.532E-03  0.463E-03  0.463E-03  0.532E-03
  10.291  0.591E-03  0.147E-03  0.149E-03  0.149E-03  0.147E-03
  10.293  0.990E-04  0.234E-04  0.261E-04  0.261E-04  0.234E-04
  10.295  0.297E-03  0.765E-04  0.721E-04  0.721E-04  0.765E-04
  10.297  0.229E-02  0.576E-03  0.570E-03  0.570E-03  0.576E-03
  10.299  0.432E-02  0.101E-02  0.115E-02  0.115E-02  0.101E-02
  10.301  0.558E-02  0.127E-02  0.152E-02  0.152E-02  0.127E-02
  10.303  0.236E-02  0.541E-03  0.637E-03  0.637E-03  0.541E-03
  10.305  0.164E-03  0.384E-04  0.435E-04  0.435E-04  0.384E-04
  10.307  0.181E-03  0.558E-04  0.345E-04  0.345E-04  0.558E-04
  10.309  0.839E-03  0.260E-03  0.160E-03  0.160E-03  0.260E-03
  10.311  0.532E-03  0.165E-03  0.101E-03  0.101E-03  0.165E-03
  10.313  0.457E-04  0.141E-04  0.869E-05  0.869E-05  0.141E-04
  10.315  0.531E-06  0.164E-06  0.101E-06  0.101E-06  0.164E-06
  10.317  0.659E-07  0.185E-07  0.145E-07  0.145E-07  0.185E-07
  10.319  0.138E-04  0.385E-05  0.303E-05  0.303E-05  0.385E-05
  10.321  0.394E-03  0.110E-03  0.867E-04  0.867E-04  0.110E-03
  10.323  0.153E-02  0.429E-03  0.338E-03  0.338E-03  0.429E-03
  10.325  0.104E-02  0.270E-03  0.252E-03  0.252E-03  0.270E-03
  10.327  0.101E-02  0.196E-03  0.310E-03  0.310E-03  0.196E-03
  10.329  0.506E-03  0.954E-04  0.157E-03  0.157E-03  0.954E-04
  10.331  0.396E-04  0.755E-05  0.122E-04  0.122E-04  0.755E-05
  10.333  0.307E-03  0.679E-04  0.858E-04  0.858E-04  0.679E-04
  10.335  0.385E-02  0.873E-03  0.105E-02  0.105E-02  0.873E-03
  10.337  0.705E-02  0.163E-02  0.190E-02  0.190E-02  0.163E-02
  10.339  0.550E-02  0.115E-02  0.160E-02  0.160E-02  0.115E-02
  10.341  0.983E-02  0.188E-02  0.304E-02  0.304E-02  0.188E-02
  10.343  0.388E-02  0.736E-03  0.120E-02  0.120E-02  0.736E-03
  10.345  0.290E-03  0.585E-04  0.864E-04  0.864E-04  0.585E-04
  10.347  0.101E-02  0.238E-03  0.269E-03  0.269E-03  0.238E-03
  10.349  0.423E-02  0.974E-03  0.114E-02  0.114E-02  0.974E-03
  10.351  0.499E-02  0.115E-02  0.134E-02  0.134E-02  0.115E-02
  10.353  0.990E-03  0.233E-03  0.262E-03  0.262E-03  0.233E-03
  10.355  0.126E-03  0.251E-04  0.378E-04  0.378E-04  0.251E-04
  10.357  0.851E-03  0.160E-03  0.265E-03  0.265E-03  0.160E-03
  10.359  0.115E-02  0.230E-03  0.346E-03  0.346E-03  0.230E-03
  10.361  0.160E-02  0.425E-03  0.375E-03  0.375E-03  0.425E-03
  10.363  0.277E-02  0.720E-03  0.665E-03  0.665E-03  0.720E-03
  10.365  0.424E-02  0.103E-02  0.109E-02  0.109E-02  0.103E-02
  10.367  0.220E-02  0.542E-03  0.557E-03  0.557E-03  0.542E-03
  10.369  0.134E-02  0.246E-03  0.425E-03  0.425E-03  0.246E-03
  10.371  0.442E-02  0.778E-03  0.143E-02  0.143E-02  0.778E-03
  10.373  0.501E-02  0.940E-03  0.157E-02  0.157E-02  0.940E-03
  10.375  0.334E-02  0.761E-03  0.911E-03  0.911E-03  0.761E-03
  10.377  0.300E-02  0.816E-03  0.686E-03  0.686E-03  0.816E-03
  10.379  0.262E-02  0.707E-03  0.602E-03  0.602E-03  0.707E-03
  10.381  0.742E-03  0.189E-03  0.182E-03  0.182E-03  0.189E-03
  10.383  0.348E-03  0.763E-04  0.975E-04  0.975E-04  0.763E-04
  10.385  0.250E-03  0.539E-04  0.708E-04  0.708E-04  0.539E-04
  10.387  0.345E-04  0.724E-05  0.100E-04  0.100E-04  0.724E-05
  10.389  0.265E-03  0.497E-04  0.826E-04  0.826E-04  0.497E-04
  10.391  0.128E-02  0.241E-03  0.401E-03  0.401E-03  0.241E-03
  10.393  0.846E-03  0.159E-03  0.264E-03  0.264E-03  0.159E-03
  10.395  0.755E-04  0.142E-04  0.236E-04  0.236E-04  0.142E-04
  10.397  0.103E-05  0.193E-06  0.321E-06  0.321E-06  0.193E-06
  10.399  0.335E-04  0.642E-05  0.103E-04  0.103E-04  0.642E-05
  10.401  0.138E-02  0.272E-03  0.418E-03  0.418E-03  0.272E-03
  10.403  0.893E-02  0.183E-02  0.263E-02  0.263E-02  0.183E-02
  10.405  0.109E-01  0.231E-02  0.313E-02  0.313E-02  0.231E-02
  10.407  0.501E-02  0.117E-02  0.134E-02  0.134E-02  0.117E-02
  10.409  0.478E-02  0.108E-02  0.131E-02  0.131E-02  0.108E-02
  10.411  0.341E-02  0.692E-03  0.101E-02  0.101E-02  0.692E-03
  10.413  0.123E-02  0.295E-03  0.318E-03  0.318E-03  0.295E-03
  10.415  0.127E-02  0.341E-03  0.296E-03  0.296E-03  0.341E-03
  10.417  0.962E-03  0.261E-03  0.219E-03  0.219E-03  0.261E-03
  10.419  0.212E-02  0.577E-03  0.482E-03  0.482E-03  0.577E-03
  10.421  0.135E-02  0.355E-03  0.322E-03  0.322E-03  0.355E-03
  10.423  0.568E-03  0.140E-03  0.144E-03  0.144E-03  0.140E-03
  10.425  0.442E-03  0.947E-04  0.126E-03  0.126E-03  0.947E-04
  10.427  0.232E-02  0.539E-03  0.622E-03  0.622E-03  0.539E-03
  10.429  0.259E-02  0.675E-03  0.621E-03  0.621E-03  0.675E-03
  10.431  0.212E-02  0.491E-03  0.570E-03  0.570E-03  0.491E-03
  10.433  0.331E-02  0.725E-03  0.931E-03  0.931E-03  0.725E-03
  10.435  0.114E-02  0.253E-03  0.315E-03  0.315E-03  0.253E-03
  10.437  0.171E-03  0.405E-04  0.451E-04  0.451E-04  0.405E-04
  10.439  0.931E-04  0.242E-04  0.224E-04  0.224E-04  0.242E-04
  10.441  0.116E-03  0.321E-04  0.257E-04  0.257E-04  0.321E-04
  10.443  0.296E-03  0.745E-04  0.735E-04  0.735E-04  0.745E-04
  10.445  0.499E-03  0.122E-03  0.128E-03  0.128E-03  0.122E-03
  10.447  0.427E-03  0.105E-03  0.108E-03  0.108E-03  0.105E-03
  10.449  0.306E-03  0.708E-04  0.822E-04  0.822E-04  0.708E-04
  10.451  0.164E-03  0.436E-04  0.383E-04  0.383E-04  0.436E-04
  10.453  0.255E-03  0.718E-04  0.557E-04  0.557E-04  0.718E-04
  10.455  0.807E-03  0.221E-03  0.183E-03  0.183E-03  0.221E-03
  10.457  0.347E-02  0.936E-03  0.800E-03  0.800E-03  0.936E-03
  10.459  0.392E-02  0.105E-02  0.908E-03  0.908E-03  0.105E-02
  10.461  0.372E-02  0.917E-03  0.943E-03  0.943E-03  0.917E-03
  10.463  0.720E-02  0.143E-02  0.217E-02  0.217E-02  0.143E-02
  10.465  0.809E-02  0.175E-02  0.229E-02  0.229E-02  0.175E-02
  10.467  0.571E-02  0.138E-02  0.147E-02  0.147E-02  0.138E-02
  10.469  0.289E-02  0.683E-03  0.762E-03  0.762E-03  0.683E-03
  10.471  0.866E-03  0.196E-03  0.237E-03  0.237E-03  0.196E-03
  10.473  0.966E-03  0.239E-03  0.244E-03  0.244E-03  0.239E-03
  10.475  0.441E-02  0.105E-02  0.116E-02  0.116E-02  0.105E-02
  10.477  0.498E-02  0.108E-02  0.141E-02  0.141E-02  0.108E-02
  10.479  0.400E-02  0.941E-03  0.106E-02  0.106E-02  0.941E-03
  10.481  0.343E-02  0.793E-03  0.924E-03  0.924E-03  0.793E-03
  10.483  0.666E-02  0.142E-02  0.191E-02  0.191E-02  0.142E-02
  10.485  0.754E-02  0.158E-02  0.219E-02  0.219E-02  0.158E-02
  10.487  0.145E-02  0.301E-03  0.425E-03  0.425E-03  0.301E-03
  10.489  0.443E-04  0.934E-05  0.128E-04  0.128E-04  0.934E-05
  10.491  0.144E-03  0.424E-04  0.294E-04  0.294E-04  0.424E-04
  10.493  0.100E-02  0.295E-03  0.206E-03  0.206E-03  0.295E-03
  10.495  0.150E-02  0.439E-03  0.311E-03  0.311E-03  0.439E-03
  10.497  0.245E-02  0.695E-03  0.530E-03  0.530E-03  0.695E-03
  10.499  0.155E-02  0.413E-03  0.363E-03  0.363E-03  0.413E-03
  10.501  0.195E-02  0.440E-03  0.537E-03  0.537E-03  0.440E-03
  10.503  0.379E-02  0.851E-03  0.104E-02  0.104E-02  0.851E-03
  10.505  0.389E-02  0.826E-03  0.112E-02  0.112E-02  0.826E-03
  10.507  0.895E-02  0.168E-02  0.279E-02  0.279E-02  0.168E-02
  10.509  0.638E-02  0.125E-02  0.194E-02  0.194E-02  0.125E-02
  10.511  0.528E-02  0.138E-02  0.126E-02  0.126E-02  0.138E-02
  10.513  0.501E-02  0.128E-02  0.123E-02  0.123E-02  0.128E-02
  10.515  0.300E-02  0.724E-03  0.778E-03  0.778E-03  0.724E-03
  10.517  0.450E-02  0.109E-02  0.115E-02  0.115E-02  0.109E-02
  10.519  0.731E-02  0.146E-02  0.220E-02  0.220E-02  0.146E-02
  10.521  0.428E-02  0.807E-03  0.133E-02  0.133E-02  0.807E-03
  10.523  0.437E-03  0.875E-04  0.131E-03  0.131E-03  0.875E-04
  10.525  0.635E-03  0.190E-03  0.128E-03  0.128E-03  0.190E-03
  10.527  0.119E-02  0.347E-03  0.249E-03  0.249E-03  0.347E-03
  10.529  0.110E-02  0.259E-03  0.290E-03  0.290E-03  0.259E-03
  10.531  0.219E-02  0.521E-03  0.572E-03  0.572E-03  0.521E-03
  10.533  0.236E-02  0.557E-03  0.625E-03  0.625E-03  0.557E-03
  10.535  0.137E-02  0.331E-03  0.353E-03  0.353E-03  0.331E-03
  10.537  0.747E-03  0.194E-03  0.179E-03  0.179E-03  0.194E-03
  10.539  0.667E-03  0.159E-03  0.174E-03  0.174E-03  0.159E-03
  10.541  0.204E-02  0.485E-03  0.533E-03  0.533E-03  0.485E-03
  10.543  0.169E-02  0.436E-03  0.408E-03  0.408E-03  0.436E-03
  10.545  0.326E-02  0.924E-03  0.705E-03  0.705E-03  0.924E-03
  10.547  0.394E-02  0.103E-02  0.942E-03  0.942E-03  0.103E-02
  10.549  0.710E-02  0.159E-02  0.196E-02  0.196E-02  0.159E-02
  10.551  0.656E-02  0.133E-02  0.195E-02  0.195E-02  0.133E-02
  10.553  0.376E-02  0.819E-03  0.106E-02  0.106E-02  0.819E-03
  10.555  0.284E-02  0.676E-03  0.743E-03  0.743E-03  0.676E-03
  10.557  0.169E-02  0.400E-03  0.443E-03  0.443E-03  0.400E-03
  10.559  0.977E-03  0.250E-03  0.239E-03  0.239E-03  0.250E-03
  10.561  0.221E-02  0.509E-03  0.595E-03  0.595E-03  0.509E-03
  10.563  0.601E-02  0.132E-02  0.169E-02  0.169E-02  0.132E-02
  10.565  0.525E-02  0.120E-02  0.143E-02  0.143E-02  0.120E-02
  10.567  0.406E-02  0.859E-03  0.117E-02  0.117E-02  0.859E-03
  10.569  0.571E-02  0.153E-02  0.132E-02  0.132E-02  0.153E-02
  10.571  0.970E-02  0.272E-02  0.212E-02  0.212E-02  0.272E-02
  10.573  0.820E-02  0.200E-02  0.210E-02  0.210E-02  0.200E-02
  10.575  0.788E-02  0.159E-02  0.235E-02  0.235E-02  0.159E-02
  10.577  0.287E-02  0.592E-03  0.842E-03  0.842E-03  0.592E-03
  10.579  0.182E-02  0.469E-03  0.442E-03  0.442E-03  0.469E-03
  10.581  0.688E-03  0.177E-03  0.167E-03  0.167E-03  0.177E-03
  10.583  0.110E-03  0.231E-04  0.319E-04  0.319E-04  0.231E-04
  10.585  0.278E-04  0.523E-05  0.868E-05  0.868E-05  0.523E-05
  10.587  0.137E-05  0.257E-06  0.427E-06  0.427E-06  0.257E-06
  10.589  0.163E-05  0.440E-06  0.375E-06  0.375E-06  0.440E-06
  10.591  0.106E-03  0.272E-04  0.256E-04  0.256E-04  0.272E-04
  10.593  0.129E-02  0.297E-03  0.346E-03  0.346E-03  0.297E-03
  10.595  0.386E-02  0.807E-03  0.112E-02  0.112E-02  0.807E-03
  10.597  0.454E-02  0.961E-03  0.131E-02  0.131E-02  0.961E-03
  10.599  0.284E-02  0.609E-03  0.808E-03  0.808E-03  0.609E-03
  10.601  0.202E-02  0.429E-03  0.579E-03  0.579E-03  0.429E-03
  10.603  0.202E-02  0.466E-03  0.544E-03  0.544E-03  0.466E-03
  10.605  0.275E-02  0.760E-03  0.613E-03  0.613E-03  0.760E-03
  10.607  0.336E-02  0.970E-03  0.708E-03  0.708E-03  0.970E-03
  10.609  0.270E-02  0.762E-03  0.589E-03  0.589E-03  0.762E-03
  10.611  0.164E-02  0.443E-03  0.376E-03  0.376E-03  0.443E-03
  10.613  0.147E-02  0.382E-03  0.355E-03  0.355E-03  0.382E-03
  10.615  0.362E-02  0.705E-03  0.110E-02  0.110E-02  0.705E-03
  10.617  0.763E-02  0.145E-02  0.237E-02  0.237E-02  0.145E-02
  10.619  0.430E-02  0.888E-03  0.126E-02  0.126E-02  0.888E-03
  10.621  0.404E-02  0.858E-03  0.116E-02  0.116E-02  0.858E-03
  10.623  0.673E-02  0.149E-02  0.188E-02  0.188E-02  0.149E-02
  10.625  0.925E-02  0.207E-02  0.255E-02  0.255E-02  0.207E-02
  10.627  0.433E-02  0.925E-03  0.124E-02  0.124E-02  0.925E-03
  10.629  0.513E-02  0.134E-02  0.122E-02  0.122E-02  0.134E-02
  10.631  0.889E-02  0.251E-02  0.194E-02  0.194E-02  0.251E-02
  10.633  0.739E-02  0.210E-02  0.160E-02  0.160E-02  0.210E-02
  10.635  0.184E-02  0.515E-03  0.404E-03  0.404E-03  0.515E-03
  10.637  0.104E-02  0.229E-03  0.292E-03  0.292E-03  0.229E-03
  10.639  0.163E-02  0.357E-03  0.459E-03  0.459E-03  0.357E-03
  10.641  0.204E-02  0.420E-03  0.601E-03  0.601E-03  0.420E-03
  10.643  0.544E-02  0.108E-02  0.164E-02  0.164E-02  0.108E-02
  10.645  0.128E-01  0.266E-02  0.374E-02  0.374E-02  0.266E-02
  10.647  0.127E-01  0.265E-02  0.371E-02  0.371E-02  0.265E-02
  10.649  0.728E-02  0.171E-02  0.193E-02  0.193E-02  0.171E-02
  10.651  0.584E-02  0.145E-02  0.147E-02  0.147E-02  0.145E-02
  10.653  0.123E-01  0.267E-02  0.348E-02  0.348E-02  0.267E-02
  10.655  0.809E-02  0.180E-02  0.224E-02  0.224E-02  0.180E-02
  10.657  0.114E-02  0.273E-03  0.298E-03  0.298E-03  0.273E-03
  10.659  0.604E-03  0.162E-03  0.140E-03  0.140E-03  0.162E-03
  10.661  0.108E-02  0.308E-03  0.232E-03  0.232E-03  0.308E-03
  10.663  0.205E-02  0.587E-03  0.437E-03  0.437E-03  0.587E-03
  10.665  0.622E-03  0.178E-03  0.133E-03  0.133E-03  0.178E-03
  10.667  0.108E-03  0.301E-04  0.237E-04  0.237E-04  0.301E-04
  10.669  0.822E-03  0.220E-03  0.190E-03  0.190E-03  0.220E-03
  10.671  0.194E-02  0.436E-03  0.537E-03  0.537E-03  0.436E-03
  10.673  0.183E-02  0.338E-03  0.575E-03  0.575E-03  0.338E-03
  10.675  0.405E-03  0.734E-04  0.129E-03  0.129E-03  0.734E-04
  10.677  0.102E-02  0.223E-03  0.286E-03  0.286E-03  0.223E-03
  10.679  0.655E-02  0.141E-02  0.187E-02  0.187E-02  0.141E-02
  10.681  0.107E-01  0.217E-02  0.318E-02  0.318E-02  0.217E-02
  10.683  0.339E-02  0.668E-03  0.103E-02  0.103E-02  0.668E-03
  10.685  0.166E-03  0.325E-04  0.505E-04  0.505E-04  0.325E-04
  10.687  0.158E-04  0.373E-05  0.419E-05  0.419E-05  0.373E-05
  10.689  0.772E-03  0.184E-03  0.202E-03  0.202E-03  0.184E-03
  10.691  0.577E-02  0.139E-02  0.149E-02  0.149E-02  0.139E-02
  10.693  0.819E-02  0.208E-02  0.202E-02  0.202E-02  0.208E-02
  10.695  0.525E-02  0.136E-02  0.127E-02  0.127E-02  0.136E-02
  10.697  0.102E-01  0.223E-02  0.287E-02  0.287E-02  0.223E-02
  10.699  0.158E-01  0.358E-02  0.431E-02  0.431E-02  0.358E-02
  10.701  0.109E-01  0.253E-02  0.293E-02  0.293E-02  0.253E-02
  10.703  0.267E-01  0.571E-02  0.763E-02  0.763E-02  0.571E-02
  10.705  0.310E-01  0.619E-02  0.932E-02  0.932E-02  0.619E-02
  10.707  0.160E-01  0.312E-02  0.487E-02  0.487E-02  0.312E-02
  10.709  0.545E-02  0.110E-02  0.162E-02  0.162E-02  0.110E-02
  10.711  0.115E-01  0.224E-02  0.352E-02  0.352E-02  0.224E-02
  10.713  0.150E-01  0.297E-02  0.455E-02  0.455E-02  0.297E-02
  10.715  0.431E-02  0.994E-03  0.116E-02  0.116E-02  0.994E-03
  10.717  0.375E-02  0.103E-02  0.845E-03  0.845E-03  0.103E-02
  10.719  0.380E-02  0.922E-03  0.980E-03  0.980E-03  0.922E-03
  10.721  0.894E-02  0.178E-02  0.269E-02  0.269E-02  0.178E-02
  10.723  0.160E-01  0.313E-02  0.485E-02  0.485E-02  0.313E-02
  10.725  0.801E-02  0.170E-02  0.230E-02  0.230E-02  0.170E-02
  10.727  0.669E-02  0.151E-02  0.183E-02  0.183E-02  0.151E-02
  10.729  0.622E-02  0.136E-02  0.174E-02  0.174E-02  0.136E-02
  10.731  0.460E-02  0.124E-02  0.106E-02  0.106E-02  0.124E-02
  10.733  0.389E-02  0.102E-02  0.924E-03  0.924E-03  0.102E-02
  10.735  0.852E-02  0.183E-02  0.243E-02  0.243E-02  0.183E-02
  10.737  0.107E-01  0.216E-02  0.319E-02  0.319E-02  0.216E-02
  10.739  0.908E-02  0.187E-02  0.267E-02  0.267E-02  0.187E-02
  10.741  0.373E-02  0.813E-03  0.105E-02  0.105E-02  0.813E-03
  10.743  0.323E-02  0.618E-03  0.996E-03  0.996E-03  0.618E-03
  10.745  0.151E-02  0.315E-03  0.439E-03  0.439E-03  0.315E-03
  10.747  0.156E-02  0.420E-03  0.359E-03  0.359E-03  0.420E-03
  10.749  0.182E-02  0.473E-03  0.439E-03  0.439E-03  0.473E-03
  10.751  0.550E-02  0.123E-02  0.152E-02  0.152E-02  0.123E-02
  10.753  0.123E-01  0.283E-02  0.331E-02  0.331E-02  0.283E-02
  10.755  0.102E-01  0.245E-02  0.266E-02  0.266E-02  0.245E-02
  10.757  0.131E-01  0.296E-02  0.357E-02  0.357E-02  0.296E-02
  10.759  0.102E-01  0.249E-02  0.259E-02  0.259E-02  0.249E-02
  10.761  0.336E-02  0.925E-03  0.754E-03  0.754E-03  0.925E-03
  10.763  0.519E-03  0.136E-03  0.123E-03  0.123E-03  0.136E-03
  10.765  0.340E-02  0.784E-03  0.917E-03  0.917E-03  0.784E-03
  10.767  0.120E-01  0.282E-02  0.320E-02  0.320E-02  0.282E-02
  10.769  0.121E-01  0.299E-02  0.308E-02  0.308E-02  0.299E-02
  10.771  0.698E-02  0.164E-02  0.185E-02  0.185E-02  0.164E-02
  10.773  0.665E-02  0.147E-02  0.186E-02  0.186E-02  0.147E-02
  10.775  0.195E-02  0.414E-03  0.564E-03  0.564E-03  0.414E-03
  10.777  0.706E-03  0.137E-03  0.217E-03  0.217E-03  0.137E-03
  10.779  0.429E-02  0.821E-03  0.132E-02  0.132E-02  0.821E-03
  10.781  0.114E-01  0.231E-02  0.339E-02  0.339E-02  0.231E-02
  10.783  0.130E-01  0.270E-02  0.382E-02  0.382E-02  0.270E-02
  10.785  0.852E-02  0.180E-02  0.246E-02  0.246E-02  0.180E-02
  10.787  0.217E-02  0.506E-03  0.577E-03  0.577E-03  0.506E-03
  10.789  0.342E-02  0.723E-03  0.989E-03  0.989E-03  0.723E-03
  10.791  0.854E-02  0.182E-02  0.244E-02  0.244E-02  0.182E-02
  10.793  0.104E-01  0.248E-02  0.273E-02  0.273E-02  0.248E-02
  10.795  0.139E-01  0.327E-02  0.370E-02  0.370E-02  0.327E-02
  10.797  0.590E-02  0.134E-02  0.161E-02  0.161E-02  0.134E-02
  10.799  0.230E-02  0.652E-03  0.498E-03  0.498E-03  0.652E-03
  10.801  0.388E-02  0.111E-02  0.828E-03  0.828E-03  0.111E-02
  10.803  0.168E-02  0.458E-03  0.385E-03  0.385E-03  0.458E-03
  10.805  0.351E-02  0.913E-03  0.841E-03  0.841E-03  0.913E-03
  10.807  0.107E-01  0.248E-02  0.289E-02  0.289E-02  0.248E-02
  10.809  0.101E-01  0.224E-02  0.282E-02  0.282E-02  0.224E-02
  10.811  0.627E-02  0.135E-02  0.178E-02  0.178E-02  0.135E-02
  10.813  0.359E-02  0.814E-03  0.979E-03  0.979E-03  0.814E-03
  10.815  0.653E-02  0.159E-02  0.167E-02  0.167E-02  0.159E-02
  10.817  0.576E-02  0.157E-02  0.130E-02  0.130E-02  0.157E-02
  10.819  0.656E-02  0.163E-02  0.165E-02  0.165E-02  0.163E-02
  10.821  0.613E-02  0.142E-02  0.164E-02  0.164E-02  0.142E-02
  10.823  0.148E-02  0.349E-03  0.390E-03  0.390E-03  0.349E-03
  10.825  0.447E-02  0.116E-02  0.108E-02  0.108E-02  0.116E-02
  10.827  0.880E-02  0.222E-02  0.217E-02  0.217E-02  0.222E-02
  10.829  0.758E-02  0.204E-02  0.176E-02  0.176E-02  0.204E-02
  10.831  0.410E-02  0.112E-02  0.927E-03  0.927E-03  0.112E-02
  10.833  0.626E-03  0.169E-03  0.144E-03  0.144E-03  0.169E-03
  10.835  0.901E-03  0.217E-03  0.233E-03  0.233E-03  0.217E-03
  10.837  0.545E-02  0.115E-02  0.158E-02  0.158E-02  0.115E-02
  10.839  0.779E-02  0.163E-02  0.227E-02  0.227E-02  0.163E-02
  10.841  0.893E-02  0.229E-02  0.218E-02  0.218E-02  0.229E-02
  10.843  0.838E-02  0.208E-02  0.211E-02  0.211E-02  0.208E-02
  10.845  0.334E-02  0.738E-03  0.933E-03  0.933E-03  0.738E-03
  10.847  0.626E-02  0.149E-02  0.164E-02  0.164E-02  0.149E-02
  10.849  0.704E-02  0.155E-02  0.197E-02  0.197E-02  0.155E-02
  10.851  0.361E-02  0.724E-03  0.108E-02  0.108E-02  0.724E-03
  10.853  0.259E-02  0.550E-03  0.747E-03  0.747E-03  0.550E-03
  10.855  0.103E-02  0.238E-03  0.276E-03  0.276E-03  0.238E-03
  10.857  0.225E-02  0.687E-03  0.439E-03  0.439E-03  0.687E-03
  10.859  0.450E-02  0.134E-02  0.909E-03  0.909E-03  0.134E-02
  10.861  0.605E-02  0.158E-02  0.145E-02  0.145E-02  0.158E-02
  10.863  0.136E-01  0.332E-02  0.346E-02  0.346E-02  0.332E-02
  10.865  0.118E-01  0.285E-02  0.302E-02  0.302E-02  0.285E-02
  10.867  0.481E-02  0.109E-02  0.132E-02  0.132E-02  0.109E-02
  10.869  0.231E-02  0.469E-03  0.687E-03  0.687E-03  0.469E-03
  10.871  0.374E-02  0.740E-03  0.113E-02  0.113E-02  0.740E-03
  10.873  0.888E-02  0.192E-02  0.251E-02  0.251E-02  0.192E-02
  10.875  0.562E-02  0.139E-02  0.141E-02  0.141E-02  0.139E-02
  10.877  0.586E-02  0.148E-02  0.145E-02  0.145E-02  0.148E-02
  10.879  0.521E-02  0.135E-02  0.126E-02  0.126E-02  0.135E-02
  10.881  0.565E-02  0.155E-02  0.127E-02  0.127E-02  0.155E-02
  10.883  0.706E-02  0.181E-02  0.172E-02  0.172E-02  0.181E-02
  10.885  0.340E-02  0.825E-03  0.875E-03  0.875E-03  0.825E-03
  10.887  0.295E-02  0.625E-03  0.851E-03  0.851E-03  0.625E-03
  10.889  0.276E-02  0.575E-03  0.803E-03  0.803E-03  0.575E-03
  10.891  0.176E-02  0.374E-03  0.504E-03  0.504E-03  0.374E-03
  10.893  0.224E-02  0.481E-03  0.641E-03  0.641E-03  0.481E-03
  10.895  0.860E-03  0.208E-03  0.222E-03  0.222E-03  0.208E-03
  10.897  0.461E-02  0.128E-02  0.102E-02  0.102E-02  0.128E-02
  10.899  0.989E-02  0.276E-02  0.219E-02  0.219E-02  0.276E-02
  10.901  0.709E-02  0.177E-02  0.178E-02  0.178E-02  0.177E-02
  10.903  0.906E-02  0.192E-02  0.261E-02  0.261E-02  0.192E-02
  10.905  0.986E-02  0.226E-02  0.268E-02  0.268E-02  0.226E-02
  10.907  0.522E-02  0.134E-02  0.127E-02  0.127E-02  0.134E-02
  10.909  0.112E-01  0.282E-02  0.278E-02  0.278E-02  0.282E-02
  10.911  0.130E-01  0.311E-02  0.340E-02  0.340E-02  0.311E-02
  10.913  0.814E-02  0.205E-02  0.202E-02  0.202E-02  0.205E-02
  10.915  0.923E-02  0.227E-02  0.234E-02  0.234E-02  0.227E-02
  10.917  0.766E-02  0.204E-02  0.179E-02  0.179E-02  0.204E-02
  10.919  0.690E-02  0.184E-02  0.161E-02  0.161E-02  0.184E-02
  10.921  0.622E-02  0.138E-02  0.173E-02  0.173E-02  0.138E-02
  10.923  0.581E-02  0.132E-02  0.159E-02  0.159E-02  0.132E-02
  10.925  0.448E-02  0.967E-03  0.127E-02  0.127E-02  0.967E-03
  10.927  0.512E-02  0.112E-02  0.144E-02  0.144E-02  0.112E-02
  10.929  0.201E-02  0.442E-03  0.561E-03  0.561E-03  0.442E-03
  10.931  0.143E-02  0.375E-03  0.338E-03  0.338E-03  0.375E-03
  10.933  0.856E-02  0.221E-02  0.207E-02  0.207E-02  0.221E-02
  10.935  0.107E-01  0.252E-02  0.281E-02  0.281E-02  0.252E-02
  10.937  0.307E-02  0.648E-03  0.887E-03  0.887E-03  0.648E-03
  10.939  0.259E-03  0.520E-04  0.778E-04  0.778E-04  0.520E-04
  10.941  0.279E-03  0.677E-04  0.719E-04  0.719E-04  0.677E-04
  10.943  0.511E-02  0.125E-02  0.130E-02  0.130E-02  0.125E-02
  10.945  0.136E-01  0.334E-02  0.347E-02  0.347E-02  0.334E-02
  10.947  0.858E-02  0.201E-02  0.229E-02  0.229E-02  0.201E-02
  10.949  0.906E-02  0.203E-02  0.249E-02  0.249E-02  0.203E-02
  10.951  0.920E-02  0.200E-02  0.260E-02  0.260E-02  0.200E-02
  10.953  0.448E-02  0.993E-03  0.125E-02  0.125E-02  0.993E-03
  10.955  0.344E-02  0.839E-03  0.883E-03  0.883E-03  0.839E-03
  10.957  0.627E-02  0.170E-02  0.143E-02  0.143E-02  0.170E-02
  10.959  0.681E-02  0.200E-02  0.141E-02  0.141E-02  0.200E-02
  10.961  0.551E-02  0.122E-02  0.154E-02  0.154E-02  0.122E-02
  10.963  0.492E-02  0.941E-03  0.152E-02  0.152E-02  0.941E-03
  10.965  0.447E-02  0.899E-03  0.133E-02  0.133E-02  0.899E-03
  10.967  0.644E-02  0.173E-02  0.149E-02  0.149E-02  0.173E-02
  10.969  0.516E-02  0.146E-02  0.112E-02  0.112E-02  0.146E-02
  10.971  0.361E-02  0.991E-03  0.814E-03  0.814E-03  0.991E-03
  10.973  0.860E-02  0.229E-02  0.201E-02  0.201E-02  0.229E-02
  10.975  0.793E-02  0.198E-02  0.198E-02  0.198E-02  0.198E-02
  10.977  0.870E-02  0.206E-02  0.229E-02  0.229E-02  0.206E-02
  10.979  0.734E-02  0.177E-02  0.190E-02  0.190E-02  0.177E-02
  10.981  0.981E-02  0.236E-02  0.254E-02  0.254E-02  0.236E-02
  10.983  0.797E-02  0.197E-02  0.202E-02  0.202E-02  0.197E-02
  10.985  0.119E-02  0.300E-03  0.296E-03  0.296E-03  0.300E-03
  10.987  0.159E-02  0.357E-03  0.439E-03  0.439E-03  0.357E-03
  10.989  0.756E-02  0.175E-02  0.204E-02  0.204E-02  0.175E-02
  10.991  0.731E-02  0.169E-02  0.196E-02  0.196E-02  0.169E-02
  10.993  0.274E-02  0.610E-03  0.759E-03  0.759E-03  0.610E-03
  10.995  0.109E-01  0.269E-02  0.277E-02  0.277E-02  0.269E-02
  10.997  0.153E-01  0.414E-02  0.349E-02  0.349E-02  0.414E-02
  10.999  0.110E-01  0.309E-02  0.242E-02  0.242E-02  0.309E-02
  11.001  0.973E-02  0.273E-02  0.213E-02  0.213E-02  0.273E-02
  11.003  0.701E-02  0.202E-02  0.149E-02  0.149E-02  0.202E-02
  11.005  0.555E-02  0.165E-02  0.113E-02  0.113E-02  0.165E-02
  11.007  0.385E-02  0.104E-02  0.882E-03  0.882E-03  0.104E-02
  11.009  0.782E-02  0.191E-02  0.200E-02  0.200E-02  0.191E-02
  11.011  0.618E-02  0.152E-02  0.156E-02  0.156E-02  0.152E-02
  11.013  0.914E-03  0.234E-03  0.223E-03  0.223E-03  0.234E-03
  11.015  0.150E-03  0.299E-04  0.451E-04  0.451E-04  0.299E-04
  11.017  0.195E-02  0.373E-03  0.604E-03  0.604E-03  0.373E-03
  11.019  0.548E-02  0.117E-02  0.157E-02  0.157E-02  0.117E-02
  11.021  0.652E-02  0.165E-02  0.160E-02  0.160E-02  0.165E-02
  11.023  0.539E-02  0.129E-02  0.140E-02  0.140E-02  0.129E-02
  11.025  0.101E-01  0.222E-02  0.284E-02  0.284E-02  0.222E-02
  11.027  0.998E-02  0.229E-02  0.270E-02  0.270E-02  0.229E-02
  11.029  0.776E-02  0.214E-02  0.174E-02  0.174E-02  0.214E-02
  11.031  0.126E-01  0.353E-02  0.276E-02  0.276E-02  0.353E-02
  11.033  0.546E-02  0.141E-02  0.132E-02  0.132E-02  0.141E-02
  11.035  0.268E-02  0.620E-03  0.723E-03  0.723E-03  0.620E-03
  11.037  0.247E-02  0.511E-03  0.726E-03  0.726E-03  0.511E-03
  11.039  0.171E-02  0.336E-03  0.521E-03  0.521E-03  0.336E-03
  11.041  0.304E-02  0.570E-03  0.952E-03  0.952E-03  0.570E-03
  11.043  0.439E-02  0.876E-03  0.132E-02  0.132E-02  0.876E-03
  11.045  0.393E-02  0.113E-02  0.839E-03  0.839E-03  0.113E-02
  11.047  0.304E-02  0.936E-03  0.585E-03  0.585E-03  0.936E-03
  11.049  0.158E-02  0.447E-03  0.341E-03  0.341E-03  0.447E-03
  11.051  0.557E-02  0.154E-02  0.125E-02  0.125E-02  0.154E-02
  11.053  0.361E-02  0.988E-03  0.817E-03  0.817E-03  0.988E-03
  11.055  0.288E-02  0.674E-03  0.764E-03  0.764E-03  0.674E-03
  11.057  0.105E-01  0.269E-02  0.256E-02  0.256E-02  0.269E-02
  11.059  0.934E-02  0.257E-02  0.210E-02  0.210E-02  0.257E-02
  11.061  0.787E-02  0.208E-02  0.185E-02  0.185E-02  0.208E-02
  11.063  0.944E-02  0.235E-02  0.237E-02  0.237E-02  0.235E-02
  11.065  0.429E-02  0.111E-02  0.103E-02  0.103E-02  0.111E-02
  11.067  0.247E-02  0.571E-03  0.667E-03  0.667E-03  0.571E-03
  11.069  0.688E-02  0.150E-02  0.194E-02  0.194E-02  0.150E-02
  11.071  0.585E-02  0.139E-02  0.154E-02  0.154E-02  0.139E-02
  11.073  0.449E-02  0.116E-02  0.109E-02  0.109E-02  0.116E-02
  11.075  0.978E-02  0.238E-02  0.251E-02  0.251E-02  0.238E-02
  11.077  0.158E-01  0.381E-02  0.410E-02  0.410E-02  0.381E-02
  11.079  0.117E-01  0.264E-02  0.323E-02  0.323E-02  0.264E-02
  11.081  0.133E-01  0.363E-02  0.301E-02  0.301E-02  0.363E-02
  11.083  0.108E-01  0.307E-02  0.232E-02  0.232E-02  0.307E-02
  11.085  0.417E-02  0.890E-03  0.120E-02  0.120E-02  0.890E-03
  11.087  0.278E-02  0.566E-03  0.826E-03  0.826E-03  0.566E-03
  11.089  0.656E-02  0.179E-02  0.149E-02  0.149E-02  0.179E-02
  11.091  0.127E-01  0.322E-02  0.312E-02  0.312E-02  0.322E-02
  11.093  0.769E-02  0.173E-02  0.211E-02  0.211E-02  0.173E-02
  11.095  0.140E-02  0.337E-03  0.361E-03  0.361E-03  0.337E-03
  11.097  0.176E-02  0.594E-03  0.288E-03  0.288E-03  0.594E-03
  11.099  0.309E-02  0.957E-03  0.591E-03  0.591E-03  0.957E-03
  11.101  0.930E-02  0.264E-02  0.201E-02  0.201E-02  0.264E-02
  11.103  0.918E-02  0.249E-02  0.210E-02  0.210E-02  0.249E-02
  11.105  0.115E-01  0.278E-02  0.299E-02  0.299E-02  0.278E-02
  11.107  0.613E-02  0.145E-02  0.161E-02  0.161E-02  0.145E-02
  11.109  0.141E-02  0.399E-03  0.305E-03  0.305E-03  0.399E-03
  11.111  0.387E-02  0.119E-02  0.748E-03  0.748E-03  0.119E-02
  11.113  0.409E-02  0.121E-02  0.834E-03  0.834E-03  0.121E-02
  11.115  0.120E-01  0.342E-02  0.258E-02  0.258E-02  0.342E-02
  11.117  0.139E-01  0.386E-02  0.308E-02  0.308E-02  0.386E-02
  11.119  0.384E-02  0.945E-03  0.974E-03  0.974E-03  0.945E-03
  11.121  0.427E-03  0.915E-04  0.122E-03  0.122E-03  0.915E-04
  11.123  0.218E-02  0.608E-03  0.479E-03  0.479E-03  0.608E-03
  11.125  0.127E-01  0.346E-02  0.290E-02  0.290E-02  0.346E-02
  11.127  0.236E-01  0.626E-02  0.552E-02  0.552E-02  0.626E-02
  11.129  0.285E-01  0.785E-02  0.638E-02  0.638E-02  0.785E-02
  11.131  0.290E-01  0.818E-02  0.633E-02  0.633E-02  0.818E-02
  11.133  0.299E-01  0.830E-02  0.663E-02  0.663E-02  0.830E-02
  11.135  0.119E-01  0.310E-02  0.287E-02  0.287E-02  0.310E-02
  11.137  0.225E-02  0.574E-03  0.549E-03  0.549E-03  0.574E-03
  11.139  0.620E-02  0.176E-02  0.134E-02  0.134E-02  0.176E-02
  11.141  0.241E-01  0.676E-02  0.531E-02  0.531E-02  0.676E-02
  11.143  0.220E-01  0.565E-02  0.536E-02  0.536E-02  0.565E-02
  11.145  0.120E-01  0.271E-02  0.327E-02  0.327E-02  0.271E-02
  11.147  0.647E-02  0.163E-02  0.161E-02  0.161E-02  0.163E-02
  11.149  0.602E-02  0.171E-02  0.130E-02  0.130E-02  0.171E-02
  11.151  0.645E-02  0.187E-02  0.136E-02  0.136E-02  0.187E-02
  11.153  0.455E-02  0.130E-02  0.977E-03  0.977E-03  0.130E-02
  11.155  0.183E-01  0.518E-02  0.396E-02  0.396E-02  0.518E-02
  11.157  0.295E-01  0.843E-02  0.630E-02  0.630E-02  0.843E-02
  11.159  0.165E-01  0.481E-02  0.343E-02  0.343E-02  0.481E-02
  11.161  0.320E-02  0.884E-03  0.716E-03  0.716E-03  0.884E-03
  11.163  0.393E-02  0.902E-03  0.106E-02  0.106E-02  0.902E-03
  11.165  0.414E-02  0.956E-03  0.112E-02  0.112E-02  0.956E-03
  11.167  0.398E-02  0.929E-03  0.106E-02  0.106E-02  0.929E-03
  11.169  0.234E-02  0.620E-03  0.552E-03  0.552E-03  0.620E-03
  11.171  0.860E-02  0.243E-02  0.187E-02  0.187E-02  0.243E-02
  11.173  0.673E-02  0.190E-02  0.146E-02  0.146E-02  0.190E-02
  11.175  0.108E-02  0.304E-03  0.235E-03  0.235E-03  0.304E-03
  11.177  0.601E-02  0.165E-02  0.136E-02  0.136E-02  0.165E-02
  11.179  0.187E-01  0.484E-02  0.452E-02  0.452E-02  0.484E-02
  11.181  0.181E-01  0.438E-02  0.465E-02  0.465E-02  0.438E-02
  11.183  0.120E-01  0.286E-02  0.315E-02  0.315E-02  0.286E-02
  11.185  0.136E-01  0.381E-02  0.299E-02  0.299E-02  0.381E-02
  11.187  0.969E-02  0.269E-02  0.216E-02  0.216E-02  0.269E-02
  11.189  0.928E-02  0.236E-02  0.228E-02  0.228E-02  0.236E-02
  11.191  0.914E-02  0.230E-02  0.227E-02  0.227E-02  0.230E-02
  11.193  0.502E-02  0.105E-02  0.146E-02  0.146E-02  0.105E-02
  11.195  0.418E-02  0.103E-02  0.106E-02  0.106E-02  0.103E-02
  11.197  0.861E-02  0.208E-02  0.223E-02  0.223E-02  0.208E-02
  11.199  0.583E-02  0.122E-02  0.170E-02  0.170E-02  0.122E-02
  11.201  0.419E-02  0.780E-03  0.132E-02  0.132E-02  0.780E-03
  11.203  0.477E-02  0.111E-02  0.127E-02  0.127E-02  0.111E-02
  11.205  0.115E-01  0.312E-02  0.262E-02  0.262E-02  0.312E-02
  11.207  0.921E-02  0.246E-02  0.215E-02  0.215E-02  0.246E-02
  11.209  0.437E-02  0.106E-02  0.113E-02  0.113E-02  0.106E-02
  11.211  0.511E-02  0.127E-02  0.128E-02  0.128E-02  0.127E-02
  11.213  0.445E-02  0.132E-02  0.903E-03  0.903E-03  0.132E-02
  11.215  0.693E-02  0.194E-02  0.153E-02  0.153E-02  0.194E-02
  11.217  0.326E-02  0.902E-03  0.731E-03  0.731E-03  0.902E-03
  11.219  0.531E-03  0.132E-03  0.133E-03  0.133E-03  0.132E-03
  11.221  0.349E-02  0.774E-03  0.971E-03  0.971E-03  0.774E-03
  11.223  0.537E-02  0.115E-02  0.154E-02  0.154E-02  0.115E-02
  11.225  0.114E-02  0.235E-03  0.335E-03  0.335E-03  0.235E-03
  11.227  0.333E-04  0.664E-05  0.100E-04  0.100E-04  0.664E-05
  11.229  0.161E-06  0.316E-07  0.486E-07  0.486E-07  0.316E-07
  11.231  0.119E-04  0.268E-05  0.325E-05  0.325E-05  0.268E-05
  11.233  0.793E-03  0.188E-03  0.208E-03  0.208E-03  0.188E-03
  11.235  0.864E-02  0.216E-02  0.216E-02  0.216E-02  0.216E-02
  11.237  0.195E-01  0.503E-02  0.474E-02  0.474E-02  0.503E-02
  11.239  0.133E-01  0.351E-02  0.316E-02  0.316E-02  0.351E-02
  11.241  0.249E-02  0.665E-03  0.579E-03  0.579E-03  0.665E-03
  11.243  0.459E-02  0.112E-02  0.118E-02  0.118E-02  0.112E-02
  11.245  0.120E-01  0.281E-02  0.316E-02  0.316E-02  0.281E-02
  11.247  0.546E-02  0.124E-02  0.149E-02  0.149E-02  0.124E-02
  11.249  0.513E-02  0.104E-02  0.153E-02  0.153E-02  0.104E-02
  11.251  0.672E-02  0.133E-02  0.203E-02  0.203E-02  0.133E-02
  11.253  0.872E-02  0.186E-02  0.250E-02  0.250E-02  0.186E-02
  11.255  0.999E-02  0.213E-02  0.286E-02  0.286E-02  0.213E-02
  11.257  0.578E-02  0.116E-02  0.173E-02  0.173E-02  0.116E-02
  11.259  0.218E-02  0.601E-03  0.490E-03  0.490E-03  0.601E-03
  11.261  0.224E-02  0.787E-03  0.332E-03  0.332E-03  0.787E-03
  11.263  0.566E-03  0.201E-03  0.826E-04  0.826E-04  0.201E-03
  11.265  0.197E-04  0.699E-05  0.288E-05  0.288E-05  0.699E-05
  11.267  0.221E-04  0.621E-05  0.482E-05  0.482E-05  0.621E-05
  11.269  0.109E-02  0.308E-03  0.239E-03  0.239E-03  0.308E-03
  11.271  0.776E-02  0.219E-02  0.169E-02  0.169E-02  0.219E-02
  11.273  0.888E-02  0.252E-02  0.192E-02  0.192E-02  0.252E-02
  11.275  0.209E-02  0.598E-03  0.445E-03  0.445E-03  0.598E-03
  11.277  0.106E-03  0.306E-04  0.223E-04  0.223E-04  0.306E-04
  11.279  0.116E-04  0.363E-05  0.216E-05  0.216E-05  0.363E-05
  11.281  0.520E-03  0.164E-03  0.961E-04  0.961E-04  0.164E-03
  11.283  0.357E-02  0.111E-02  0.676E-03  0.676E-03  0.111E-02
  11.285  0.514E-02  0.139E-02  0.118E-02  0.118E-02  0.139E-02
  11.287  0.503E-02  0.113E-02  0.139E-02  0.139E-02  0.113E-02
  11.289  0.591E-02  0.136E-02  0.160E-02  0.160E-02  0.136E-02
  11.291  0.993E-02  0.197E-02  0.299E-02  0.299E-02  0.197E-02
  11.293  0.745E-02  0.143E-02  0.229E-02  0.229E-02  0.143E-02
  11.295  0.360E-02  0.829E-03  0.974E-03  0.974E-03  0.829E-03
  11.297  0.617E-02  0.170E-02  0.139E-02  0.139E-02  0.170E-02
  11.299  0.825E-02  0.226E-02  0.187E-02  0.187E-02  0.226E-02
  11.301  0.790E-02  0.208E-02  0.187E-02  0.187E-02  0.208E-02
  11.303  0.390E-02  0.114E-02  0.813E-03  0.813E-03  0.114E-02
  11.305  0.377E-02  0.105E-02  0.835E-03  0.835E-03  0.105E-02
  11.307  0.899E-02  0.177E-02  0.272E-02  0.272E-02  0.177E-02
  11.309  0.267E-01  0.546E-02  0.790E-02  0.790E-02  0.546E-02
  11.311  0.233E-01  0.503E-02  0.660E-02  0.660E-02  0.503E-02
  11.313  0.117E-01  0.258E-02  0.327E-02  0.327E-02  0.258E-02
  11.315  0.280E-01  0.603E-02  0.799E-02  0.799E-02  0.603E-02
  11.317  0.138E-01  0.290E-02  0.401E-02  0.401E-02  0.290E-02
  11.319  0.968E-03  0.198E-03  0.286E-03  0.286E-03  0.198E-03
  11.321  0.956E-05  0.191E-05  0.287E-05  0.287E-05  0.191E-05
  11.323  0.132E-07  0.260E-08  0.401E-08  0.401E-08  0.260E-08
  11.325  0.264E-07  0.494E-08  0.827E-08  0.827E-08  0.494E-08
  11.327  0.133E-04  0.249E-05  0.417E-05  0.417E-05  0.249E-05
  11.329  0.963E-03  0.180E-03  0.301E-03  0.301E-03  0.180E-03
  11.331  0.104E-01  0.195E-02  0.326E-02  0.326E-02  0.195E-02
  11.333  0.187E-01  0.355E-02  0.582E-02  0.582E-02  0.355E-02
  11.335  0.745E-02  0.147E-02  0.226E-02  0.226E-02  0.147E-02
  11.337  0.389E-02  0.981E-03  0.964E-03  0.964E-03  0.981E-03
  11.339  0.850E-02  0.212E-02  0.213E-02  0.213E-02  0.212E-02
  11.341  0.412E-02  0.984E-03  0.108E-02  0.108E-02  0.984E-03
  11.343  0.242E-02  0.581E-03  0.631E-03  0.631E-03  0.581E-03
  11.345  0.695E-02  0.186E-02  0.162E-02  0.162E-02  0.186E-02
  11.347  0.545E-02  0.160E-02  0.112E-02  0.112E-02  0.160E-02
  11.349  0.516E-02  0.146E-02  0.112E-02  0.112E-02  0.146E-02
  11.351  0.107E-01  0.309E-02  0.228E-02  0.228E-02  0.309E-02
  11.353  0.630E-02  0.187E-02  0.129E-02  0.129E-02  0.187E-02
  11.355  0.337E-02  0.820E-03  0.862E-03  0.862E-03  0.820E-03
  11.357  0.887E-02  0.195E-02  0.248E-02  0.248E-02  0.195E-02
  11.359  0.176E-01  0.341E-02  0.541E-02  0.541E-02  0.341E-02
  11.361  0.186E-01  0.346E-02  0.581E-02  0.581E-02  0.346E-02
  11.363  0.958E-02  0.175E-02  0.304E-02  0.304E-02  0.175E-02
  11.365  0.537E-02  0.104E-02  0.165E-02  0.165E-02  0.104E-02
  11.367  0.466E-02  0.127E-02  0.106E-02  0.106E-02  0.127E-02
  11.369  0.436E-02  0.105E-02  0.113E-02  0.113E-02  0.105E-02
  11.371  0.166E-02  0.328E-03  0.502E-03  0.502E-03  0.328E-03
  11.373  0.131E-03  0.246E-04  0.409E-04  0.409E-04  0.246E-04
  11.375  0.735E-04  0.149E-04  0.218E-04  0.218E-04  0.149E-04
  11.377  0.139E-02  0.283E-03  0.411E-03  0.411E-03  0.283E-03
  11.379  0.364E-02  0.745E-03  0.108E-02  0.108E-02  0.745E-03
  11.381  0.222E-02  0.558E-03  0.554E-03  0.554E-03  0.558E-03
  11.383  0.532E-02  0.162E-02  0.104E-02  0.104E-02  0.162E-02
  11.385  0.959E-02  0.267E-02  0.212E-02  0.212E-02  0.267E-02
  11.387  0.806E-02  0.200E-02  0.203E-02  0.203E-02  0.200E-02
  11.389  0.299E-02  0.679E-03  0.815E-03  0.815E-03  0.679E-03
  11.391  0.375E-03  0.849E-04  0.103E-03  0.103E-03  0.849E-04
  11.393  0.176E-03  0.381E-04  0.498E-04  0.498E-04  0.381E-04
  11.395  0.485E-02  0.101E-02  0.142E-02  0.142E-02  0.101E-02
  11.397  0.227E-01  0.458E-02  0.678E-02  0.678E-02  0.458E-02
  11.399  0.194E-01  0.404E-02  0.566E-02  0.566E-02  0.404E-02
  11.401  0.783E-02  0.209E-02  0.183E-02  0.183E-02  0.209E-02
  11.403  0.348E-02  0.970E-03  0.769E-03  0.769E-03  0.970E-03
  11.405  0.819E-02  0.208E-02  0.202E-02  0.202E-02  0.208E-02
  11.407  0.116E-01  0.305E-02  0.274E-02  0.274E-02  0.305E-02
  11.409  0.256E-02  0.684E-03  0.597E-03  0.597E-03  0.684E-03
  11.411  0.249E-02  0.525E-03  0.720E-03  0.720E-03  0.525E-03
  11.413  0.445E-02  0.928E-03  0.130E-02  0.130E-02  0.928E-03
  11.415  0.243E-02  0.480E-03  0.737E-03  0.737E-03  0.480E-03
  11.417  0.456E-02  0.859E-03  0.142E-02  0.142E-02  0.859E-03
  11.419  0.396E-02  0.781E-03  0.120E-02  0.120E-02  0.781E-03
  11.421  0.515E-02  0.112E-02  0.145E-02  0.145E-02  0.112E-02
  11.423  0.492E-02  0.117E-02  0.128E-02  0.128E-02  0.117E-02
  11.425  0.159E-02  0.400E-03  0.394E-03  0.394E-03  0.400E-03
  11.427  0.324E-02  0.939E-03  0.679E-03  0.679E-03  0.939E-03
  11.429  0.928E-02  0.246E-02  0.218E-02  0.218E-02  0.246E-02
  11.431  0.697E-02  0.162E-02  0.187E-02  0.187E-02  0.162E-02
  11.433  0.339E-02  0.683E-03  0.101E-02  0.101E-02  0.683E-03
  11.435  0.336E-02  0.700E-03  0.981E-03  0.981E-03  0.700E-03
  11.437  0.196E-02  0.445E-03  0.535E-03  0.535E-03  0.445E-03
  11.439  0.381E-02  0.924E-03  0.981E-03  0.981E-03  0.924E-03
  11.441  0.832E-02  0.187E-02  0.229E-02  0.229E-02  0.187E-02
  11.443  0.146E-01  0.281E-02  0.449E-02  0.449E-02  0.281E-02
  11.445  0.141E-01  0.266E-02  0.441E-02  0.441E-02  0.266E-02
  11.447  0.507E-02  0.959E-03  0.158E-02  0.158E-02  0.959E-03
  11.449  0.364E-02  0.666E-03  0.115E-02  0.115E-02  0.666E-03
  11.451  0.243E-02  0.446E-03  0.768E-03  0.768E-03  0.446E-03
  11.453  0.149E-02  0.447E-03  0.297E-03  0.297E-03  0.447E-03
  11.455  0.301E-02  0.972E-03  0.532E-03  0.532E-03  0.972E-03
  11.457  0.225E-02  0.574E-03  0.551E-03  0.551E-03  0.574E-03
  11.459  0.337E-02  0.693E-03  0.991E-03  0.991E-03  0.693E-03
  11.461  0.184E-02  0.431E-03  0.488E-03  0.488E-03  0.431E-03
  11.463  0.262E-02  0.740E-03  0.569E-03  0.569E-03  0.740E-03
  11.465  0.172E-02  0.465E-03  0.394E-03  0.394E-03  0.465E-03
  11.467  0.652E-02  0.155E-02  0.172E-02  0.172E-02  0.155E-02
  11.469  0.151E-01  0.357E-02  0.397E-02  0.397E-02  0.357E-02
  11.471  0.569E-02  0.133E-02  0.152E-02  0.152E-02  0.133E-02
  11.473  0.329E-03  0.748E-04  0.896E-04  0.896E-04  0.748E-04
  11.475  0.221E-03  0.627E-04  0.477E-04  0.477E-04  0.627E-04
  11.477  0.498E-02  0.141E-02  0.108E-02  0.108E-02  0.141E-02
  11.479  0.158E-01  0.440E-02  0.349E-02  0.349E-02  0.440E-02
  11.481  0.824E-02  0.220E-02  0.192E-02  0.192E-02  0.220E-02
  11.483  0.518E-02  0.140E-02  0.119E-02  0.119E-02  0.140E-02
  11.485  0.947E-02  0.259E-02  0.214E-02  0.214E-02  0.259E-02
  11.487  0.422E-02  0.108E-02  0.103E-02  0.103E-02  0.108E-02
  11.489  0.293E-02  0.557E-03  0.910E-03  0.910E-03  0.557E-03
  11.491  0.541E-02  0.100E-02  0.170E-02  0.170E-02  0.100E-02
  11.493  0.979E-02  0.187E-02  0.303E-02  0.303E-02  0.187E-02
  11.495  0.121E-01  0.233E-02  0.373E-02  0.373E-02  0.233E-02
  11.497  0.365E-02  0.770E-03  0.106E-02  0.106E-02  0.770E-03
  11.499  0.103E-01  0.225E-02  0.290E-02  0.290E-02  0.225E-02
  11.501  0.165E-01  0.358E-02  0.468E-02  0.468E-02  0.358E-02
  11.503  0.121E-01  0.284E-02  0.319E-02  0.319E-02  0.284E-02
  11.505  0.556E-02  0.120E-02  0.158E-02  0.158E-02  0.120E-02
  11.507  0.116E-02  0.242E-03  0.336E-03  0.336E-03  0.242E-03
  11.509  0.358E-02  0.800E-03  0.988E-03  0.988E-03  0.800E-03
  11.511  0.296E-02  0.663E-03  0.819E-03  0.819E-03  0.663E-03
  11.513  0.334E-03  0.747E-04  0.923E-04  0.923E-04  0.747E-04
  11.515  0.927E-04  0.177E-04  0.287E-04  0.287E-04  0.177E-04
  11.517  0.170E-02  0.321E-03  0.528E-03  0.528E-03  0.321E-03
  11.519  0.491E-02  0.971E-03  0.148E-02  0.148E-02  0.971E-03
  11.521  0.523E-02  0.125E-02  0.136E-02  0.136E-02  0.125E-02
  11.523  0.784E-02  0.192E-02  0.200E-02  0.200E-02  0.192E-02
  11.525  0.957E-02  0.235E-02  0.243E-02  0.243E-02  0.235E-02
  11.527  0.834E-02  0.180E-02  0.237E-02  0.237E-02  0.180E-02
  11.529  0.573E-02  0.120E-02  0.167E-02  0.167E-02  0.120E-02
  11.531  0.356E-02  0.810E-03  0.970E-03  0.970E-03  0.810E-03
  11.533  0.563E-03  0.131E-03  0.150E-03  0.150E-03  0.131E-03
  11.535  0.104E-02  0.281E-03  0.236E-03  0.236E-03  0.281E-03
  11.537  0.495E-02  0.134E-02  0.114E-02  0.114E-02  0.134E-02
  11.539  0.404E-02  0.103E-02  0.990E-03  0.990E-03  0.103E-02
  11.541  0.167E-02  0.348E-03  0.486E-03  0.486E-03  0.348E-03
  11.543  0.250E-02  0.485E-03  0.768E-03  0.768E-03  0.485E-03
  11.545  0.340E-02  0.866E-03  0.834E-03  0.834E-03  0.866E-03
  11.547  0.154E-01  0.413E-02  0.357E-02  0.357E-02  0.413E-02
  11.549  0.198E-01  0.468E-02  0.520E-02  0.520E-02  0.468E-02
  11.551  0.737E-02  0.152E-02  0.217E-02  0.217E-02  0.152E-02
  11.553  0.295E-02  0.675E-03  0.802E-03  0.802E-03  0.675E-03
  11.555  0.296E-02  0.645E-03  0.836E-03  0.836E-03  0.645E-03
  11.557  0.191E-02  0.394E-03  0.560E-03  0.560E-03  0.394E-03
  11.559  0.572E-03  0.108E-03  0.178E-03  0.178E-03  0.108E-03
  11.561  0.402E-02  0.739E-03  0.127E-02  0.127E-02  0.739E-03
  11.563  0.133E-01  0.252E-02  0.411E-02  0.411E-02  0.252E-02
  11.565  0.119E-01  0.229E-02  0.366E-02  0.366E-02  0.229E-02
  11.567  0.286E-02  0.615E-03  0.816E-03  0.816E-03  0.615E-03
  11.569  0.383E-02  0.110E-02  0.818E-03  0.818E-03  0.110E-02
  11.571  0.536E-02  0.147E-02  0.121E-02  0.121E-02  0.147E-02
  11.573  0.667E-02  0.154E-02  0.179E-02  0.179E-02  0.154E-02
  11.575  0.926E-02  0.213E-02  0.250E-02  0.250E-02  0.213E-02
  11.577  0.667E-02  0.156E-02  0.177E-02  0.177E-02  0.156E-02
  11.579  0.576E-02  0.137E-02  0.151E-02  0.151E-02  0.137E-02
  11.581  0.987E-02  0.228E-02  0.266E-02  0.266E-02  0.228E-02
  11.583  0.805E-02  0.192E-02  0.211E-02  0.211E-02  0.192E-02
  11.585  0.113E-01  0.310E-02  0.255E-02  0.255E-02  0.310E-02
  11.587  0.101E-01  0.296E-02  0.209E-02  0.209E-02  0.296E-02
  11.589  0.317E-02  0.953E-03  0.630E-03  0.630E-03  0.953E-03
  11.591  0.420E-02  0.108E-02  0.102E-02  0.102E-02  0.108E-02
  11.593  0.662E-02  0.158E-02  0.173E-02  0.173E-02  0.158E-02
  11.595  0.435E-02  0.110E-02  0.108E-02  0.108E-02  0.110E-02
  11.597  0.132E-02  0.342E-03  0.320E-03  0.320E-03  0.342E-03
  11.599  0.814E-03  0.146E-03  0.261E-03  0.261E-03  0.146E-03
  11.601  0.684E-03  0.119E-03  0.223E-03  0.223E-03  0.119E-03
  11.603  0.250E-02  0.477E-03  0.773E-03  0.773E-03  0.477E-03
  11.605  0.127E-01  0.261E-02  0.373E-02  0.373E-02  0.261E-02
  11.607  0.199E-01  0.499E-02  0.498E-02  0.498E-02  0.499E-02
  11.609  0.172E-01  0.469E-02  0.389E-02  0.389E-02  0.469E-02
  11.611  0.956E-02  0.227E-02  0.252E-02  0.252E-02  0.227E-02
  11.613  0.109E-01  0.261E-02  0.285E-02  0.285E-02  0.261E-02
  11.615  0.600E-02  0.151E-02  0.149E-02  0.149E-02  0.151E-02
  11.617  0.252E-02  0.543E-03  0.718E-03  0.718E-03  0.543E-03
  11.619  0.152E-02  0.276E-03  0.484E-03  0.484E-03  0.276E-03
  11.621  0.247E-02  0.443E-03  0.791E-03  0.791E-03  0.443E-03
  11.623  0.317E-02  0.736E-03  0.847E-03  0.847E-03  0.736E-03
  11.625  0.860E-02  0.195E-02  0.234E-02  0.234E-02  0.195E-02
  11.627  0.626E-02  0.132E-02  0.181E-02  0.181E-02  0.132E-02
